#  Table F110W_filter.tab  Thu 14:41:52 08-May-2014
#      WAVELENGTH      THROUGHPUT
#           angstroms                
     8768.301     0.000
     8769.014     0.001012331
     8769.726     0.001030502
     8770.438     0.001048715
     8771.151     0.001066943
     8771.863     0.001085163
     8772.576     0.001103378
     8773.284     0.001121339
     8773.992     0.001139316
     8774.705     0.001157433
     8775.418     0.001175565
     8776.126     0.001193589
      8776.84     0.001211778
     8777.558     0.001230082
     8778.266     0.001248153
     8778.979      0.00126639
     8779.692     0.001284618
     8780.401     0.001302761
     8781.114      0.00132102
     8781.828     0.001339321
     8782.536       0.0013598
     8783.255     0.001391568
     8783.969     0.001423148
     8784.678      0.00145454
     8785.392     0.001486175
     8786.105     0.001517838
     8786.814     0.001549313
     8787.528     0.001581032
     8788.242     0.001612778
     8788.951     0.001644335
     8789.665     0.001676137
     8790.385     0.001708228
     8791.094     0.001739868
     8791.809     0.001771797
     8792.522     0.001804839
     8793.232        0.001844
     8793.946     0.001883411
     8794.661      0.00192291
     8795.371     0.001962174
     8796.091     0.002002012
     8796.805     0.002041562
     8797.515     0.002080928
     8798.229     0.002120601
     8798.944     0.002160308
     8799.655     0.002199832
      8800.37     0.002239493
     8801.085     0.002279075
     8801.795     0.002318413
     8802.506     0.002359566
      8803.23     0.002413754
     8803.945      0.00246725
     8804.651     0.002520124
     8805.367     0.002573764
     8806.082     0.002627368
     8806.798     0.002681083
     8807.514     0.002734834
     8808.229     0.002788547
     8808.944     0.002842372
     8809.655     0.002895863
     8810.371     0.002949759
     8811.082     0.003003324
     8811.798     0.003057294
     8812.515     0.003113905
     8813.226     0.003186391
     8813.941     0.003259426
     8814.657     0.003332511
     8815.369     0.003405245
      8816.09     0.003478928
     8816.807     0.003552262
     8817.518     0.003625044
     8818.234     0.003698478
     8818.951     0.003771959
     8819.663     0.003844992
     8820.379     0.003918473
     8821.096     0.003992105
     8821.813     0.004065787
     8822.529     0.004144072
     8823.246     0.004248248
     8823.958     0.004351784
     8824.676     0.004456242
     8825.393     0.004560629
     8826.104     0.004664376
     8826.821     0.004768906
     8827.539     0.004873649
     8828.251     0.004977607
     8828.974     0.005083205
      8829.69     0.005188019
     8830.403     0.005292692
     8831.121     0.005398447
     8831.839     0.005504303
     8832.552     0.005615541
     8833.269      0.00575537
     8833.986     0.005895522
     8834.704     0.006035799
     8835.417     0.006175248
     8836.136     0.006315976
     8836.854     0.006456641
     8837.571     0.006597431
     8838.289      0.00673835
     8839.008     0.006879594
     8839.716     0.007018848
     8840.435     0.007160347
     8841.152     0.007301782
     8841.871     0.007443537
     8842.589      0.00759612
     8843.308     0.007786741
     8844.026     0.007977532
     8844.745     0.008168504
     8845.459     0.008358346
     8846.173     0.008548361
     8846.892     0.008739851
     8847.615     0.008932822
     8848.329     0.009123359
     8849.048     0.009315376
     8849.767     0.009507569
     8850.481     0.009698887
       8851.2     0.009891428
      8851.92       0.0100844
     8852.634      0.01029423
     8853.354      0.01055191
     8854.072      0.01080948
     8854.787      0.01106588
     8855.512      0.01132602
     8856.231      0.01158465
     8856.945       0.0118414
     8857.665       0.0121005
     8858.385      0.01235983
       8859.1      0.01261764
     8859.819      0.01287745
     8860.545      0.01313961
      8861.26      0.01339812
     8861.979      0.01365864
     8862.699      0.01394916
     8863.415      0.01428871
     8864.135      0.01463043
     8864.855      0.01497292
      8865.57      0.01531293
     8866.291      0.01565604
     8867.012      0.01599947
     8867.728      0.01634088
     8868.452       0.0166868
     8869.173      0.01703117
     8869.894      0.01737585
     8870.609       0.0177185
     8871.325      0.01806146
     8872.046      0.01840708
     8872.768        0.018798
     8873.488      0.01924094
     8874.209      0.01968428
      8874.93      0.02012803
     8875.651      0.02057279
     8876.367      0.02101433
     8877.084      0.02145688
     8877.805      0.02190224
     8878.526      0.02234862
     8879.248      0.02279539
     8879.965      0.02323955
      8880.69      0.02368956
     8881.407      0.02413452
     8882.129      0.02458292
     8882.851      0.02510311
     8883.567      0.02567353
     8884.289      0.02624835
     8885.012      0.02682447
     8885.729      0.02739642
     8886.455      0.02797672
     8887.178      0.02855441
     8887.895      0.02912794
     8888.617      0.02970668
     8889.339      0.03028516
     8890.057      0.03086103
     8890.778      0.03144056
     8891.501      0.03202139
     8892.219      0.03259883
     8892.941      0.03329367
     8893.664      0.03403915
     8894.387       0.0347853
     8895.109      0.03553213
     8895.832      0.03627963
      8896.55      0.03702277
     8897.272      0.03777162
     8897.995      0.03852116
     8898.714      0.03926732
     8899.441      0.04002331
     8900.165      0.04077323
     8900.883      0.04150865
     8901.606       0.0422503
     8902.324      0.04298621
     8903.053      0.04386611
     8903.771      0.04476015
     8904.495      0.04566057
     8905.218      0.04656007
     8905.932      0.04744896
      8906.66      0.04835639
     8907.389      0.04926416
     8908.104      0.05015518
     8908.827      0.05105748
     8909.551      0.05196011
     8910.274      0.05286301
     8910.999      0.05376747
     8911.723      0.05467103
     8912.441      0.05556879
     8913.171      0.05660951
     8913.891       0.0576375
     8914.609      0.05866444
     8915.334      0.05970015
     8916.059      0.06073618
     8916.783      0.06177259
     8917.502      0.06280098
     8918.227      0.06383813
     8918.946      0.06486861
     8919.671      0.06590643
     8920.401      0.06695528
     8921.121      0.06799091
     8921.846      0.06903405
      8922.57      0.07010439
     8923.291      0.07130171
     8924.016      0.07250606
     8924.741      0.07371259
     8925.466       0.0749181
     8926.191      0.07612573
     8926.917      0.07733402
     8927.637      0.07853304
     8928.362      0.07974236
     8929.088      0.08095231
     8929.809      0.08215465
     8930.534        0.083362
      8931.26      0.08456849
      8931.98      0.08576727
     8932.706      0.08703868
     8933.437      0.08843905
     8934.158      0.08982302
     8934.884       0.0912149
     8935.609      0.09260738
     8936.336      0.09400215
     8937.057      0.09538614
     8937.783      0.09678189
     8938.515      0.09818751
     8939.235      0.09957296
     8939.957       0.1009607
     8940.684       0.1023584
      8941.41       0.1037566
     8942.137       0.1051552
     8942.863       0.1066318
      8943.58       0.1081483
     8944.307       0.1096861
     8945.033       0.1112244
      8945.76       0.1127632
     8946.487       0.1143046
     8947.214       0.1158445
      8947.94       0.1173849
     8948.663       0.1189176
     8949.395       0.1204694
     8950.112       0.1219939
      8950.84        0.123546
     8951.571       0.1251071
     8952.294       0.1266502
     8953.021       0.1282861
     8953.749       0.1299464
     8954.472       0.1315963
     8955.199       0.1332581
     8955.927       0.1349207
     8956.649       0.1365729
     8957.377       0.1382371
     8958.105       0.1399042
     8958.828       0.1415587
     8959.561       0.1432364
     8960.289       0.1449023
     8961.012       0.1465504
      8961.74       0.1482124
     8962.468       0.1498736
     8963.191       0.1516131
      8963.92       0.1533651
     8964.653       0.1551293
     8965.377       0.1568706
     8966.104        0.158622
     8966.833       0.1603762
     8967.557       0.1621194
     8968.286       0.1638772
     8969.015       0.1656333
     8969.743       0.1673901
     8970.467       0.1691422
     8971.196        0.170913
     8971.925       0.1726822
     8972.654       0.1744706
     8973.383       0.1763023
     8974.112       0.1781374
     8974.831       0.1799462
     8975.565       0.1817952
      8976.29       0.1836205
      8977.02       0.1854589
     8977.749       0.1872983
     8978.479       0.1891384
     8979.208       0.1909794
     8979.938       0.1928212
     8980.667       0.1946533
     8981.387       0.1964606
     8982.116       0.1982929
     8982.846       0.2001217
     8983.576         0.20195
     8984.301       0.2037641
     8985.031       0.2055936
     8985.756        0.207409
     8986.491        0.209252
     8987.222       0.2110835
     8987.946       0.2129007
     8988.677       0.2147334
     8989.407       0.2165666
     8990.133       0.2183882
     8990.868       0.2202351
     8991.599       0.2220703
     8992.324        0.223894
     8993.055        0.225673
     8993.786        0.227441
     8994.512       0.2291955
     8995.242       0.2309623
     8995.974       0.2327321
     8996.699       0.2344884
     8997.431       0.2362594
     8998.161       0.2380287
     8998.888       0.2397891
     8999.624       0.2415738
     9000.354       0.2433321
     9001.081       0.2450677
     9001.813       0.2468153
     9002.544       0.2485517
     9003.275       0.2501865
     9004.007       0.2518215
     9004.738       0.2534568
     9005.471       0.2550945
     9006.197       0.2567193
     9006.929       0.2583552
     9007.655       0.2599805
     9008.388       0.2616191
     9009.119       0.2632556
     9009.852       0.2648946
     9010.574       0.2664995
     9011.306       0.2681208
     9012.043        0.269755
     9012.771       0.2712974
     9013.503       0.2727474
     9014.235       0.2741975
     9014.968       0.2756476
     9015.695       0.2770881
     9016.433        0.278548
     9017.155       0.2799788
     9017.897       0.2814483
     9018.631       0.2829005
     9019.354       0.2843314
     9020.086       0.2857837
     9020.819       0.2872537
     9021.547       0.2887123
      9022.28       0.2901827
     9023.013        0.291538
     9023.741       0.2928452
     9024.475       0.2941611
     9025.208       0.2954772
     9025.941       0.2967937
     9026.675       0.2981102
     9027.408       0.2994269
     9028.137       0.3007351
      9028.87       0.3020521
     9029.604       0.3033694
     9030.332       0.3046784
     9031.071       0.3060072
     9031.805       0.3073258
     9032.534       0.3086211
     9033.268       0.3097251
     9034.002       0.3108309
      9034.73       0.3119279
     9035.465       0.3130339
     9036.199       0.3141401
     9036.934       0.3152463
     9037.662       0.3163439
     9038.396       0.3174505
     9039.136       0.3185647
     9039.865       0.3196643
     9040.601       0.3207732
     9041.335       0.3218808
      9042.06       0.3229739
     9042.799       0.3239844
     9043.534       0.3248513
     9044.264       0.3257113
     9045.004       0.3265842
     9045.733       0.3274444
     9046.469       0.3283119
     9047.203        0.329178
     9047.938       0.3300457
     9048.664       0.3309018
     9049.399       0.3317695
     9050.135       0.3326413
      9050.87         0.33353
     9051.605       0.3344191
     9052.341       0.3353083
     9053.076       0.3360062
     9053.807       0.3366534
     9054.547       0.3373095
     9055.273       0.3379536
     9056.009       0.3386056
     9056.744       0.3392579
      9057.48       0.3399111
     9058.217       0.3405645
     9058.952       0.3412172
     9059.684       0.3418666
      9060.42       0.3425089
     9061.156       0.3431422
     9061.887       0.3437707
     9062.623       0.3443693
     9063.359        0.344813
     9064.091       0.3452536
     9064.828       0.3456979
     9065.569       0.3461446
     9066.301       0.3465855
     9067.037       0.3470293
     9067.774       0.3474739
     9068.506       0.3479151
     9069.243       0.3483596
     9069.979       0.3488038
     9070.717       0.3492698
     9071.454       0.3497364
      9072.19       0.3502026
     9072.928       0.3505528
      9073.66       0.3508217
     9074.397       0.3510925
     9075.135       0.3513634
     9075.867       0.3516325
     9076.604       0.3519035
     9077.342       0.3521746
     9078.074       0.3524439
     9078.817       0.3527173
     9079.555       0.3529885
     9080.282       0.3532482
     9081.021       0.3534984
     9081.764       0.3537505
     9082.496        0.353998
     9083.234       0.3540918
     9083.973       0.3541855
      9084.71       0.3542793
     9085.448       0.3543731
     9086.187       0.3544668
     9086.915       0.3545595
     9087.653       0.3546533
     9088.392       0.3547471
     9089.125       0.3548402
     9089.868       0.3549348
     9090.603       0.3550284
     9091.336       0.3551221
     9092.079       0.3552169
     9092.818       0.3552629
     9093.552        0.355247
     9094.291       0.3552308
      9095.03       0.3552147
     9095.764       0.3551987
     9096.503       0.3551827
     9097.247       0.3551662
     9097.981       0.3551501
     9098.721        0.355134
      9099.46       0.3551178
     9100.194       0.3551074
     9100.934       0.3551135
     9101.673       0.3551193
     9102.407       0.3551251
     9103.147         0.35508
     9103.887        0.355028
     9104.626       0.3549757
     9105.366       0.3549234
     9106.106       0.3548711
     9106.846       0.3548189
     9107.581       0.3547668
     9108.321       0.3547144
     9109.061       0.3546621
     9109.796         0.35461
     9110.541       0.3545415
     9111.281       0.3544675
     9112.017       0.3543941
     9112.757       0.3543188
     9113.498       0.3542411
     9114.233       0.3541638
     9114.974       0.3540862
     9115.714       0.3540081
      9116.45       0.3539309
     9117.186       0.3538537
     9117.927       0.3537758
     9118.667        0.353698
     9119.408         0.35362
     9120.154       0.3535462
     9120.891       0.3534907
     9121.632       0.3534346
     9122.372        0.353379
     9123.104       0.3533407
      9123.85       0.3533055
     9124.597       0.3532701
     9125.328       0.3532356
     9126.069       0.3532006
     9126.811       0.3531657
     9127.547       0.3531308
     9128.294       0.3530954
      9129.03       0.3530605
     9129.768       0.3530256
     9130.509       0.3529754
     9131.251       0.3529187
     9131.993        0.352862
     9132.735       0.3528191
     9133.477       0.3528073
     9134.214       0.3527956
     9134.956       0.3527837
     9135.698        0.352772
     9136.436       0.3527601
     9137.184       0.3527481
     9137.926       0.3527363
     9138.663       0.3527243
     9139.405       0.3527125
     9140.148       0.3527052
     9140.891       0.3527154
     9141.629       0.3527255
     9142.371       0.3527359
     9143.114       0.3528121
     9143.852       0.3529026
     9144.595        0.352994
     9145.338       0.3530853
     9146.081       0.3531766
     9146.824       0.3532678
     9147.567       0.3533593
     9148.306         0.35345
     9149.049       0.3535413
     9149.792       0.3536328
      9150.53       0.3537079
     9151.279       0.3537783
     9152.022       0.3538482
     9152.762       0.3539521
     9153.505        0.354124
     9154.249        0.354296
     9154.982       0.3544656
     9155.727       0.3546377
     9156.471       0.3548099
     9157.209       0.3549807
     9157.958       0.3551539
     9158.702       0.3553262
     9159.446       0.3554984
     9160.191       0.3556767
     9160.931         0.35587
      9161.67       0.3560634
     9162.414       0.3562582
     9163.158        0.356534
     9163.903       0.3568227
     9164.647       0.3571111
     9165.393          0.3574
     9166.132       0.3576866
     9166.877       0.3579758
     9167.621       0.3582643
     9168.361       0.3585516
     9169.106       0.3588409
     9169.852       0.3591302
     9170.591       0.3593996
     9171.336       0.3596669
     9172.082       0.3599347
     9172.827       0.3602306
     9173.572       0.3605666
     9174.317       0.3609026
     9175.062       0.3612389
     9175.804       0.3615732
     9176.549       0.3619094
       9177.3       0.3622483
      9178.04       0.3625823
     9178.786       0.3629191
     9179.532        0.363256
     9180.272       0.3635986
     9181.019       0.3639584
     9181.765       0.3643184
     9182.506       0.3646761
     9183.252       0.3651029
     9183.998       0.3655311
     9184.739       0.3659564
     9185.485       0.3663847
     9186.236        0.366816
     9186.978       0.3672418
      9187.72       0.3676681
     9188.471       0.3680996
     9189.213       0.3685264
     9189.959       0.3689554
     9190.706       0.3693634
     9191.452       0.3697699
     9192.199       0.3701768
     9192.946       0.3706068
     9193.684       0.3710478
      9194.43       0.3714946
     9195.177       0.3719418
     9195.919       0.3723862
     9196.672       0.3728372
     9197.419       0.3732845
     9198.156       0.3737263
     9198.903       0.3741739
     9199.656       0.3746251
     9200.398       0.3750725
     9201.146       0.3755249
     9201.894       0.3759781
     9202.636       0.3764281
     9203.384       0.3768835
     9204.132       0.3773392
      9204.88       0.3777949
     9205.627         0.37825
     9206.375        0.378706
     9207.118        0.379159
     9207.866       0.3796149
     9208.614       0.3800709
     9209.363       0.3805277
     9210.106       0.3809777
     9210.854       0.3814103
     9211.603       0.3818431
     9212.347       0.3822736
       9213.1       0.3826881
     9213.849       0.3830936
     9214.592        0.383496
     9215.341       0.3839016
      9216.09       0.3843073
     9216.833         0.38471
     9217.582       0.3851156
     9218.336        0.385524
      9219.08       0.3859271
     9219.829        0.386333
     9220.578       0.3867576
     9221.322       0.3871851
     9222.071       0.3876157
     9222.821       0.3880266
     9223.565       0.3884026
     9224.314       0.3887812
      9225.06       0.3891579
     9225.809       0.3895365
     9226.559       0.3899159
     9227.308       0.3902947
     9228.058       0.3906741
     9228.808       0.3910536
     9229.558       0.3914333
     9230.297       0.3918079
     9231.047        0.392189
     9231.803        0.392573
     9232.547         0.39295
     9233.298       0.3932587
     9234.048       0.3935672
     9234.793       0.3938736
     9235.543       0.3941822
     9236.299       0.3944931
     9237.039       0.3947979
      9237.79       0.3951069
      9238.54       0.3954155
     9239.286       0.3957229
     9240.042       0.3960354
     9240.792       0.3963694
     9241.538       0.3967018
     9242.289       0.3970366
      9243.04       0.3973098
     9243.791       0.3975531
     9244.537       0.3977949
     9245.293         0.39804
     9246.044       0.3982836
     9246.791       0.3985259
     9247.542       0.3987696
     9248.293       0.3990133
      9249.04        0.399256
     9249.791       0.3994997
     9250.543       0.3997259
     9251.289       0.3999436
     9252.041       0.4001629
     9252.793       0.4003468
     9253.545       0.4004613
     9254.296       0.4005758
     9255.048       0.4006904
     9255.795       0.4008043
     9256.547       0.4009189
       9257.3       0.4010337
     9258.047       0.4011475
     9258.799       0.4012623
     9259.556       0.4013777
     9260.304       0.4015019
     9261.056       0.4016422
     9261.809       0.4017825
     9262.551       0.4019198
     9263.309       0.4019582
     9264.056       0.4019962
     9264.809       0.4020345
     9265.562       0.4020726
     9266.314       0.4021108
     9267.063       0.4021488
      9267.82       0.4021872
     9268.573       0.4022255
     9269.316       0.4022633
     9270.069       0.4022991
     9270.822       0.4023119
     9271.576        0.402325
     9272.329       0.4023379
     9273.082         0.40229
     9273.831       0.4022183
     9274.584       0.4021462
     9275.338       0.4020739
     9276.087       0.4020021
      9276.84       0.4019298
     9277.594       0.4018575
     9278.348       0.4017851
     9279.097       0.4017132
     9279.851        0.401641
     9280.609       0.4015886
     9281.358       0.4015421
     9282.112       0.4014951
     9282.867       0.4014209
     9283.616       0.4013108
      9284.37          0.4012
     9285.125       0.4010888
     9285.879       0.4009777
     9286.634       0.4008665
     9287.389       0.4007554
     9288.138       0.4006448
     9288.893       0.4005335
     9289.647       0.4004222
     9290.396       0.4002982
     9291.151       0.4001614
     9291.906       0.4000247
     9292.656       0.3998826
     9293.411       0.3997025
     9294.172       0.3995208
     9294.922       0.3993419
     9295.677       0.3991617
     9296.428       0.3989821
     9297.183       0.3988019
     9297.938       0.3986213
     9298.693       0.3984407
     9299.449       0.3982599
     9300.205       0.3980861
      9300.96       0.3979309
     9301.706       0.3977773
     9302.462       0.3976217
     9303.218       0.3974603
     9303.974        0.397298
     9304.725       0.3971368
     9305.485       0.3969734
     9306.231       0.3968132
     9306.987       0.3966507
     9307.744        0.396488
       9308.5       0.3963254
     9309.256       0.3961625
     9310.013        0.395999
     9310.764       0.3958124
     9311.521       0.3956243
     9312.277        0.395436
     9313.034       0.3952633
      9313.79       0.3950993
     9314.547       0.3949353
     9315.304        0.394771
     9316.056        0.394608
     9316.813       0.3944436
     9317.569       0.3942794
     9318.321       0.3941161
     9319.079       0.3939517
     9319.836       0.3937872
     9320.588       0.3936434
     9321.346       0.3935039
     9322.108       0.3933633
      9322.86       0.3932412
     9323.618       0.3931428
     9324.375       0.3930444
     9325.128       0.3929466
     9325.886        0.392848
     9326.648       0.3927487
     9327.401        0.392651
     9328.159       0.3925521
     9328.917       0.3924534
      9329.67       0.3923553
     9330.428       0.3922424
     9331.186       0.3921188
     9331.934       0.3919964
     9332.697       0.3918866
      9333.45       0.3918457
     9334.209       0.3918044
     9334.968        0.391763
     9335.726       0.3917217
     9336.484       0.3916804
     9337.243       0.3916389
     9338.002       0.3915975
      9338.75       0.3915568
     9339.509       0.3915154
     9340.272       0.3914825
     9341.026       0.3914661
     9341.785       0.3914497
     9342.545       0.3914331
     9343.304       0.3915078
     9344.058       0.3915844
     9344.817       0.3916613
     9345.571       0.3917379
      9346.33       0.3918147
      9347.09       0.3918917
      9347.85       0.3919688
     9348.604       0.3920452
     9349.368       0.3921229
     9350.128       0.3921959
     9350.883       0.3922475
     9351.643       0.3922997
     9352.402       0.3923517
     9353.157       0.3924547
     9353.917       0.3925729
     9354.683       0.3926917
     9355.438       0.3928091
     9356.197       0.3929272
     9356.958       0.3930455
     9357.713       0.3931629
     9358.473       0.3932809
     9359.233       0.3933994
     9359.989        0.393517
     9360.749         0.39366
      9361.51       0.3938038
     9362.266       0.3939465
     9363.031       0.3941353
     9363.792       0.3943516
     9364.548       0.3945666
     9365.309       0.3947829
     9366.064       0.3949981
     9366.825       0.3952148
     9367.587       0.3954314
     9368.353       0.3956494
     9369.108       0.3958648
      9369.87       0.3960819
     9370.632       0.3962778
     9371.383       0.3964668
     9372.144       0.3966582
     9372.905       0.3968863
     9373.667       0.3971605
     9374.429       0.3974348
      9375.19        0.397709
     9375.941       0.3979797
     9376.714       0.3982581
     9377.476       0.3985324
     9378.228       0.3988036
     9378.989       0.3990781
     9379.752       0.3993531
     9380.509       0.3996433
     9381.275       0.3999456
     9382.038       0.4002467
     9382.795       0.4005582
     9383.558       0.4009038
      9384.32       0.4012493
     9385.083        0.401595
      9385.84       0.4019381
     9386.603       0.4022841
     9387.365       0.4026301
     9388.123       0.4029739
     9388.886       0.4033202
     9389.648       0.4036666
     9390.411       0.4040131
     9391.175         0.40436
     9391.938       0.4047066
     9392.695       0.4050513
     9393.459       0.4053988
     9394.222       0.4057459
      9394.98       0.4060915
     9395.749       0.4064415
     9396.512       0.4067891
     9397.271        0.407135
     9398.034       0.4074831
     9398.798       0.4078313
     9399.556        0.408177
     9400.319       0.4085021
     9401.083       0.4087951
     9401.842        0.409086
     9402.606        0.409379
      9403.37       0.4096638
     9404.129       0.4099466
     9404.898       0.4102336
     9405.657       0.4105166
     9406.422       0.4108017
     9407.186       0.4110864
      9407.95       0.4113715
     9408.709       0.4116545
     9409.479        0.411942
     9410.243       0.4122353
     9410.998       0.4125431
     9411.763        0.412855
     9412.527        0.413167
     9413.292       0.4134617
     9414.057       0.4137553
     9414.822       0.4140491
     9415.576       0.4143386
     9416.342       0.4146326
     9417.106       0.4149263
     9417.872       0.4152205
     9418.637       0.4155143
     9419.402       0.4158085
     9420.168        0.416097
     9420.928       0.4163623
     9421.693       0.4166296
     9422.459       0.4168971
     9423.225        0.417122
      9423.99       0.4173388
     9424.756       0.4175555
     9425.517       0.4177706
     9426.282       0.4179873
     9427.048       0.4182039
     9427.809       0.4184192
     9428.575       0.4186362
     9429.341       0.4188529
     9430.102       0.4190742
     9430.868       0.4193362
      9431.64          0.4196
       9432.4       0.4198601
     9433.167       0.4200648
     9433.934       0.4202512
     9434.695       0.4204364
     9435.462       0.4206226
     9436.229       0.4208091
     9436.995       0.4209956
     9437.762        0.421182
     9438.528       0.4213687
      9439.29       0.4215541
     9440.058       0.4217389
     9440.824       0.4218981
     9441.586       0.4220566
     9442.349       0.4222151
     9443.121       0.4223227
     9443.883       0.4224049
      9444.65        0.422488
     9445.417       0.4225707
     9446.185       0.4226539
     9446.952       0.4227368
      9447.72       0.4228198
     9448.478       0.4229016
     9449.245       0.4229846
     9450.013       0.4230681
      9450.78       0.4231785
     9451.549        0.423289
     9452.316       0.4233994
     9453.079       0.4234589
     9453.853       0.4234905
     9454.615       0.4235216
     9455.389       0.4235532
     9456.146        0.423584
     9456.915       0.4236152
     9457.684       0.4236465
     9458.447       0.4236777
     9459.221       0.4237092
     9459.989       0.4237404
     9460.753       0.4237714
     9461.521       0.4238028
      9462.29       0.4238339
     9463.054        0.423824
     9463.822       0.4237865
     9464.597       0.4237487
      9465.36       0.4237116
      9466.13       0.4236739
     9466.898       0.4236365
     9467.663       0.4235991
     9468.432       0.4235616
     9469.201       0.4235239
     9469.966       0.4234866
     9470.735       0.4234224
     9471.505       0.4233571
     9472.269       0.4232925
     9473.038       0.4231988
     9473.813       0.4230828
     9474.578       0.4229683
     9475.348       0.4228533
     9476.118       0.4227382
     9476.883       0.4226238
     9477.652       0.4225084
     9478.423       0.4223933
     9479.192        0.422278
     9479.963       0.4221626
     9480.733       0.4220733
     9481.498        0.421986
     9482.264       0.4218984
     9483.039       0.4217924
     9483.805       0.4216746
     9484.575       0.4215559
     9485.346       0.4214374
     9486.106       0.4213202
     9486.877       0.4212014
     9487.658        0.421081
     9488.419       0.4209636
     9489.189       0.4208446
     9489.961       0.4207258
     9490.731       0.4206066
     9491.497       0.4204884
     9492.273       0.4203684
     9493.045       0.4202492
     9493.816       0.4201304
     9494.583       0.4200122
     9495.354       0.4198932
      9496.12       0.4197751
     9496.892        0.419656
     9497.664       0.4195368
      9498.43       0.4194185
     9499.202       0.4192992
     9499.974       0.4191799
      9500.74       0.4190302
     9501.518       0.4188773
      9502.29        0.418725
     9503.057       0.4185846
     9503.829       0.4184506
     9504.601       0.4183167
     9505.368       0.4181836
     9506.146       0.4180486
     9506.918       0.4179146
     9507.686       0.4177812
     9508.458       0.4176471
      9509.23       0.4175128
     9509.998       0.4173794
     9510.771       0.4172723
     9511.543       0.4171651
     9512.311       0.4170587
     9513.084       0.4169635
     9513.856       0.4168762
     9514.624       0.4167893
     9515.402       0.4167013
     9516.176       0.4166136
     9516.943       0.4165266
     9517.717        0.416439
      9518.49       0.4163515
     9519.253       0.4162649
     9520.032       0.4161753
     9520.811       0.4160594
     9521.579       0.4159451
     9522.348       0.4158308
     9523.121       0.4157448
     9523.896       0.4156741
     9524.669       0.4156034
     9525.438       0.4155331
     9526.217       0.4154617
      9526.98        0.415392
     9527.755       0.4153211
     9528.528       0.4152503
     9529.303       0.4151796
     9530.077       0.4151113
     9530.852       0.4150674
      9531.62        0.415024
     9532.396         0.41498
      9533.17       0.4149935
     9533.938       0.4150295
     9534.719        0.415066
     9535.493       0.4151021
     9536.263       0.4151383
     9537.038       0.4151744
     9537.812       0.4152105
     9538.583       0.4152468
     9539.357       0.4152828
     9540.133       0.4153189
     9540.902       0.4153549
     9541.678       0.4153908
     9542.453        0.415427
     9543.229       0.4155177
     9544.004       0.4156231
     9544.779       0.4157287
      9545.55       0.4158331
     9546.325       0.4159388
     9547.101       0.4160443
     9547.871       0.4161491
     9548.652       0.4162554
     9549.429       0.4163612
     9550.199       0.4164591
     9550.975        0.416537
     9551.751       0.4166152
     9552.521       0.4166928
     9553.293       0.4168045
     9554.074       0.4169227
     9554.845       0.4170394
     9555.621       0.4171571
     9556.398       0.4172749
     9557.175       0.4173923
     9557.951       0.4175099
     9558.728       0.4176275
     9559.494       0.4177437
     9560.275       0.4178716
     9561.047       0.4180156
     9561.824       0.4181609
     9562.601       0.4183059
     9563.378       0.4184943
     9564.155       0.4186841
     9564.933       0.4188738
     9565.704       0.4190621
     9566.481       0.4192521
     9567.253       0.4194406
     9568.031       0.4196306
     9568.809       0.4198205
      9569.58       0.4200091
     9570.358       0.4201992
     9571.141       0.4203901
     9571.913       0.4205787
     9572.691       0.4207728
     9573.469       0.4210062
     9574.241        0.421238
      9575.02       0.4214718
     9575.797       0.4217055
     9576.575       0.4219391
     9577.354       0.4221731
     9578.132       0.4224072
     9578.904       0.4226394
     9579.683       0.4228734
     9580.461       0.4230909
     9581.234       0.4232955
     9582.013       0.4235016
     9582.792       0.4237146
     9583.564       0.4239501
     9584.344       0.4241877
     9585.128        0.424427
     9585.901        0.424663
      9586.68       0.4249005
     9587.459       0.4251383
     9588.232       0.4253744
     9589.012       0.4256121
     9589.791         0.42585
      9590.57       0.4261082
      9591.35       0.4263743
     9592.129       0.4266401
     9592.902       0.4269018
     9593.677       0.4271598
     9594.456        0.427419
     9595.236       0.4276789
     9596.016       0.4279385
     9596.795       0.4281983
     9597.575       0.4284584
     9598.345       0.4287149
      9599.13       0.4289766
     9599.915       0.4292384
     9600.685       0.4294841
     9601.465        0.429732
     9602.244       0.4299796
      9603.02       0.4302058
     9603.805       0.4304146
     9604.585       0.4306221
      9605.36       0.4308285
     9606.141        0.431036
     9606.922       0.4312438
     9607.696       0.4314499
     9608.478       0.4316579
     9609.258       0.4318655
     9610.033       0.4320708
     9610.814         0.43225
     9611.596        0.432429
     9612.371       0.4326067
     9613.157       0.4327624
     9613.938       0.4329046
     9614.714       0.4330458
     9615.495       0.4331881
     9616.276       0.4333304
     9617.053       0.4334718
     9617.834       0.4336141
     9618.621       0.4337575
     9619.397       0.4338988
     9620.179       0.4340476
     9620.961       0.4342186
     9621.737       0.4343886
     9622.519       0.4345594
     9623.301       0.4346923
     9624.077       0.4348174
     9624.859       0.4349436
     9625.642       0.4350696
     9626.418       0.4351947
       9627.2       0.4353209
     9627.987       0.4354477
     9628.765        0.435573
     9629.547       0.4356992
     9630.329        0.435831
     9631.102        0.435969
      9631.89       0.4361097
     9632.677       0.4362471
     9633.449        0.436322
     9634.232       0.4363979
     9635.015       0.4364737
     9635.798       0.4365496
     9636.581       0.4366255
     9637.363       0.4367013
     9638.142       0.4367767
     9638.919        0.436852
     9639.702       0.4369281
     9640.485       0.4369857
     9641.269       0.4370321
     9642.053       0.4370788
     9642.836       0.4371109
     9643.614        0.437099
     9644.397       0.4370872
     9645.181       0.4370754
      9645.96       0.4370636
     9646.749       0.4370514
     9647.532       0.4370397
     9648.311       0.4370278
     9649.095       0.4370158
     9649.879       0.4370039
     9650.658       0.4370164
     9651.441       0.4370335
     9652.226       0.4370503
     9653.005       0.4370364
     9653.789       0.4369859
     9654.574       0.4369355
     9655.353       0.4368851
     9656.143       0.4368344
     9656.928       0.4367838
     9657.707       0.4367335
     9658.491       0.4366829
     9659.276       0.4366322
     9660.056       0.4365818
     9660.846       0.4365305
     9661.631       0.4364792
      9662.41       0.4364284
     9663.195       0.4363462
      9663.98       0.4362506
     9664.761       0.4361555
     9665.546       0.4360597
     9666.326       0.4359644
     9667.111       0.4358684
     9667.896       0.4357726
     9668.683       0.4356765
     9669.468       0.4355806
     9670.254        0.435475
     9671.039       0.4353495
     9671.825        0.435224
     9672.601          0.4351
     9673.387       0.4349598
     9674.173       0.4348186
     9674.958       0.4346775
     9675.744        0.434536
      9676.53       0.4343949
     9677.312       0.4342543
     9678.104       0.4341119
      9678.89       0.4339705
     9679.665       0.4338312
     9680.452        0.433706
     9681.238       0.4335932
      9682.02        0.433481
     9682.807       0.4333657
     9683.599       0.4332404
      9684.38       0.4331169
     9685.172       0.4329914
     9685.954       0.4328677
     9686.735       0.4327439
     9687.522       0.4326192
      9688.31       0.4324943
     9689.092       0.4323704
     9689.884       0.4322448
     9690.672       0.4321195
     9691.454        0.431995
     9692.241       0.4318698
     9693.028       0.4317471
     9693.811       0.4316277
     9694.599       0.4315074
     9695.386       0.4313873
     9696.169       0.4312676
     9696.956       0.4311474
     9697.744        0.431027
     9698.532       0.4309065
      9699.32        0.430786
     9700.104       0.4306625
     9700.892       0.4305126
      9701.68       0.4303627
     9702.468       0.4302129
     9703.251       0.4300814
     9704.045       0.4299534
     9704.833       0.4298267
     9705.611       0.4297014
     9706.399       0.4295746
     9707.188       0.4294476
     9707.977       0.4293208
     9708.766       0.4291938
     9709.555       0.4290668
     9710.344        0.428952
     9711.122       0.4288547
     9711.911       0.4287561
     9712.711        0.428658
     9713.489       0.4285943
     9714.278       0.4285294
     9715.067       0.4284649
     9715.857       0.4283998
     9716.646       0.4283351
     9717.436       0.4282706
     9718.226       0.4282055
     9719.016       0.4281405
       9719.8        0.428076
     9720.584       0.4280111
     9721.374       0.4279458
     9722.164       0.4278803
     9722.948       0.4278389
     9723.738        0.427839
     9724.534       0.4278391
     9725.313       0.4278391
     9726.104       0.4278394
     9726.899       0.4278395
     9727.684       0.4278397
     9728.475       0.4278399
     9729.265       0.4278397
      9730.05        0.427838
     9730.841        0.427809
     9731.631       0.4277799
     9732.422       0.4277507
     9733.213       0.4277641
     9734.004       0.4277968
     9734.789       0.4278292
      9735.58        0.427862
     9736.371       0.4278946
     9737.157        0.427927
     9737.948       0.4279597
     9738.739       0.4279923
     9739.525       0.4280246
     9740.316       0.4280688
     9741.108       0.4281298
     9741.899       0.4281909
     9742.691       0.4282531
     9743.482        0.428361
     9744.274       0.4284691
     9745.056       0.4285756
     9745.848       0.4286836
     9746.649        0.428793
     9747.431       0.4288996
     9748.223       0.4290078
     9749.015       0.4291158
     9749.808        0.429224
       9750.6        0.429332
     9751.392       0.4294397
     9752.173       0.4295461
     9752.966       0.4296716
     9753.758       0.4298273
     9754.551       0.4299833
     9755.343        0.430139
     9756.136       0.4302952
     9756.923       0.4304502
     9757.722       0.4306074
     9758.515       0.4307634
     9759.296       0.4309172
     9760.089       0.4310736
     9760.888       0.4312303
     9761.676       0.4313854
     9762.469        0.431541
     9763.262       0.4317147
      9764.05       0.4318933
     9764.843       0.4320731
     9765.637       0.4322532
     9766.425       0.4324321
     9767.218        0.432612
     9768.012        0.432792
       9768.8        0.432971
       9769.6       0.4331526
     9770.393        0.433318
     9771.182       0.4334677
     9771.976       0.4336182
      9772.77       0.4337712
     9773.559       0.4339432
     9774.353       0.4341164
     9775.151       0.4342907
      9775.94       0.4344627
     9776.735        0.434636
     9777.529       0.4348094
     9778.318       0.4349813
     9779.107       0.4351535
     9779.907        0.435328
     9780.697       0.4355258
     9781.491       0.4357281
     9782.286       0.4359306
     9783.081       0.4361399
     9783.876       0.4363555
     9784.671        0.436571
     9785.466       0.4367868
      9786.25       0.4369994
     9787.046       0.4372154
     9787.841       0.4374314
     9788.636       0.4376471
     9789.432       0.4378632
     9790.227        0.438079
     9791.022       0.4382947
     9791.817       0.4385103
     9792.613        0.438726
     9793.398       0.4389265
     9794.194       0.4391282
      9794.99       0.4393298
     9795.786       0.4395316
     9796.576       0.4397319
     9797.378       0.4399353
     9798.163       0.4401344
     9798.959       0.4403364
     9799.761         0.44054
     9800.552       0.4407277
     9801.348       0.4409111
     9802.145       0.4410945
      9802.94       0.4412666
     9803.737       0.4414152
     9804.534       0.4415637
     9805.325       0.4417109
     9806.127       0.4418604
     9806.918       0.4420077
      9807.71       0.4421554
     9808.507       0.4423038
     9809.304       0.4424524
      9810.09       0.4425955
     9810.893       0.4427143
     9811.689       0.4428323
     9812.481       0.4429495
     9813.278       0.4430379
     9814.076       0.4431158
     9814.874       0.4431937
     9815.671       0.4432717
     9816.469       0.4433497
     9817.267       0.4434275
     9818.063       0.4435054
     9818.861       0.4435833
     9819.659       0.4436612
     9820.452       0.4437557
     9821.244       0.4438624
     9822.042       0.4439701
     9822.841       0.4440677
     9823.639        0.444121
     9824.437       0.4441741
     9825.225       0.4442264
     9826.022       0.4442796
     9826.821       0.4443328
     9827.619       0.4443858
     9828.418        0.444439
     9829.217       0.4444922
     9830.016       0.4445457
     9830.813       0.4446165
     9831.612       0.4446873
     9832.406        0.444758
      9833.21       0.4447916
      9834.01       0.4448043
     9834.798       0.4448165
     9835.597       0.4448291
     9836.396       0.4448416
     9837.195       0.4448541
     9837.994       0.4448667
     9838.788        0.444879
     9839.582       0.4448915
     9840.382       0.4449038
     9841.182       0.4449156
     9841.981       0.4449277
      9842.78       0.4449342
      9843.58        0.444894
     9844.375       0.4448541
     9845.175       0.4448139
      9845.98       0.4447735
     9846.774       0.4447335
     9847.575       0.4446932
     9848.375       0.4446529
      9849.17        0.444613
      9849.97       0.4445728
     9850.771       0.4445024
     9851.565       0.4444318
     9852.366       0.4443604
     9853.161       0.4442609
     9853.962         0.44414
     9854.762        0.444019
     9855.563       0.4438979
     9856.363       0.4437769
     9857.164       0.4436558
     9857.966       0.4435345
     9858.767       0.4434136
     9859.562       0.4432932
     9860.368       0.4431848
      9861.17       0.4430933
      9861.96       0.4430033
     9862.762       0.4429092
     9863.563       0.4427807
     9864.364       0.4426522
     9865.166       0.4425234
     9865.968       0.4423946
     9866.758       0.4422678
      9867.56       0.4421391
     9868.361       0.4420104
     9869.163       0.4418815
     9869.965       0.4417528
     9870.768       0.4416231
     9871.563       0.4414944
     9872.366       0.4413648
     9873.174       0.4412239
     9873.965       0.4410782
     9874.772       0.4409294
     9875.575       0.4407818
     9876.372       0.4406351
     9877.175        0.440487
     9877.977       0.4403392
     9878.774       0.4401922
     9879.577       0.4400441
      9880.38       0.4398959
     9881.177       0.4397483
     9881.979       0.4395995
     9882.782       0.4394501
      9883.58       0.4392937
     9884.384       0.4391362
     9885.187       0.4389787
     9885.984       0.4388223
     9886.793       0.4386636
     9887.597        0.438506
     9888.395       0.4383492
     9889.197       0.4381917
     9890.001        0.438034
     9890.805       0.4378453
     9891.608       0.4376568
     9892.412       0.4374682
     9893.216       0.4372913
     9894.009       0.4371238
     9894.813       0.4369537
     9895.622       0.4367825
     9896.421       0.4366135
     9897.225       0.4364435
     9898.029       0.4362733
     9898.822       0.4361055
     9899.632       0.4359342
     9900.442        0.435779
     9901.235       0.4356401
      9902.04       0.4354992
     9902.845       0.4353612
     9903.649       0.4352379
     9904.454       0.4351148
     9905.259       0.4349914
     9906.063       0.4348683
     9906.868       0.4347451
     9907.668       0.4346224
     9908.468       0.4344995
     9909.272       0.4343763
     9910.078       0.4342527
     9910.883       0.4341286
     9911.683       0.4340053
     9912.488        0.433881
     9913.288       0.4338017
     9914.094       0.4337397
     9914.904       0.4336771
     9915.705       0.4336153
     9916.511       0.4335532
     9917.316        0.433491
     9918.122       0.4334288
     9918.928       0.4333666
     9919.733       0.4333043
     9920.534        0.433242
     9921.341       0.4331788
     9922.146        0.433116
     9922.947       0.4330685
     9923.754       0.4330591
      9924.56       0.4330496
      9925.36       0.4330403
     9926.162       0.4330309
     9926.974       0.4330212
      9927.78       0.4330119
     9928.582       0.4330024
     9929.389       0.4329932
     9930.195       0.4329834
     9931.002       0.4329734
     9931.809       0.4329631
     9932.616       0.4329531
     9933.423       0.4329899
     9934.229       0.4330338
     9935.037       0.4330778
     9935.839       0.4331215
     9936.641        0.433165
     9937.448        0.433209
     9938.256       0.4332531
     9939.063       0.4332971
     9939.871       0.4333412
     9940.667       0.4333592
     9941.475       0.4333725
     9942.283       0.4333861
     9943.091       0.4334248
     9943.898       0.4334941
     9944.707       0.4335634
     9945.515       0.4336326
     9946.322       0.4337019
     9947.131       0.4337709
     9947.934       0.4338399
     9948.747       0.4339094
     9949.556       0.4339786
     9950.354       0.4340599
     9951.162       0.4341585
     9951.971        0.434257
     9952.773       0.4343582
     9953.588       0.4345163
     9954.396        0.434673
     9955.194       0.4348275
     9956.003       0.4349841
     9956.813       0.4351411
     9957.621       0.4352981
      9958.43        0.435455
     9959.239        0.435612
     9960.043       0.4357678
     9960.853       0.4359242
     9961.661       0.4360806
     9962.471        0.436237
      9963.28       0.4364268
      9964.09       0.4366322
     9964.895       0.4368364
     9965.704       0.4370419
     9966.514       0.4372473
     9967.323       0.4374528
     9968.128        0.437657
     9968.937       0.4378628
     9969.742        0.438067
     9970.553       0.4382723
     9971.362       0.4384775
     9972.173       0.4386829
     9972.982       0.4388965
     9973.793       0.4391305
     9974.604       0.4393641
     9975.403       0.4395951
     9976.219       0.4398305
     9977.035       0.4400662
     9977.835       0.4402972
     9978.646       0.4405311
     9979.456       0.4407652
     9980.268       0.4409994
     9981.078       0.4412329
     9981.889       0.4414665
     9982.689        0.441697
       9983.5       0.4419467
     9984.312       0.4421976
     9985.123       0.4424487
     9985.934       0.4426995
     9986.745       0.4429507
     9987.546       0.4431985
     9988.363       0.4434514
      9989.18       0.4437043
      9989.98       0.4439522
     9990.792       0.4441727
     9991.609       0.4443939
     9992.416       0.4446124
     9993.228       0.4448278
      9994.04         0.44504
     9994.852       0.4452522
     9995.658       0.4454632
     9996.471       0.4456753
     9997.277       0.4458863
      9998.09       0.4460987
     9998.902       0.4463112
     9999.709       0.4465219
     10000.53       0.4467689
     10001.34       0.4470323
     10002.15       0.4472957
     10002.96       0.4475528
     10003.78       0.4477938
     10004.59       0.4480349
     10005.39       0.4482726
     10006.21       0.4485136
     10007.02        0.448755
     10007.83        0.448996
     10008.64       0.4492376
     10009.46        0.449479
     10010.26       0.4497169
     10011.07       0.4499578
     10011.89       0.4501989
      10012.7       0.4504399
     10013.51        0.450644
     10014.33        0.450846
     10015.13       0.4510455
     10015.94       0.4512476
     10016.77       0.4514525
     10017.57       0.4516521
     10018.39       0.4518546
      10019.2       0.4520569
     10020.01       0.4522593
     10020.83       0.4524614
     10021.64       0.4526634
     10022.46       0.4528652
     10023.27       0.4530403
     10024.08       0.4532005
     10024.89       0.4533585
      10025.7       0.4535188
     10026.52        0.453679
     10027.33       0.4538395
     10028.15       0.4539998
     10028.96         0.45416
     10029.77       0.4543183
     10030.58       0.4544784
      10031.4       0.4546384
     10032.21       0.4547985
     10033.03       0.4549345
     10033.84       0.4550239
     10034.66       0.4551135
     10035.47        0.455203
     10036.29       0.4552925
     10037.09       0.4553809
     10037.91       0.4554705
     10038.73       0.4555613
     10039.54       0.4556497
     10040.35       0.4557252
     10041.17       0.4557824
     10041.99       0.4558397
     10042.79       0.4558923
     10043.62       0.4558685
     10044.43       0.4558453
     10045.24       0.4558223
     10046.06       0.4557988
     10046.87       0.4557755
     10047.69       0.4557522
      10048.5       0.4557289
     10049.32       0.4557055
     10050.14       0.4556874
     10050.95       0.4556953
     10051.77       0.4557032
     10052.58       0.4557111
     10053.39       0.4556696
     10054.21       0.4556141
     10055.03       0.4555587
     10055.84       0.4555032
     10056.66       0.4554476
     10057.47       0.4553927
     10058.28       0.4553374
      10059.1       0.4552818
     10059.92       0.4552263
     10060.74         0.45517
     10061.55       0.4551139
     10062.37       0.4550576
     10063.19       0.4549671
     10064.01       0.4548458
     10064.81        0.454726
     10065.63       0.4546046
     10066.46       0.4544815
     10067.27       0.4543617
     10068.08       0.4542403
      10068.9       0.4541186
     10069.72       0.4539971
     10070.54        0.453875
     10071.36       0.4537526
     10072.16       0.4536321
     10072.98       0.4534959
      10073.8       0.4533232
     10074.61       0.4531526
     10075.44       0.4529774
     10076.26       0.4528042
     10077.06       0.4526336
     10077.88       0.4524603
      10078.7       0.4522872
     10079.53       0.4521115
     10080.34       0.4519404
     10081.16       0.4517664
     10081.98       0.4515924
      10082.8       0.4514164
     10083.62       0.4512027
     10084.44       0.4509888
     10085.26       0.4507748
     10086.08       0.4505609
     10086.89       0.4503469
      10087.7       0.4501355
     10088.52       0.4499215
     10089.34        0.449707
     10090.15       0.4494954
     10090.98       0.4492775
      10091.8       0.4490626
     10092.61       0.4488503
     10093.43       0.4486108
     10094.25       0.4483656
     10095.07       0.4481204
     10095.89        0.447875
     10096.71       0.4476295
     10097.53        0.447384
     10098.35       0.4471385
     10099.17       0.4468929
     10099.98       0.4466503
      10100.8       0.4464042
     10101.62       0.4461575
     10102.43        0.445914
     10103.27       0.4456787
     10104.09       0.4454564
      10104.9       0.4452363
     10105.72       0.4450135
     10106.54       0.4447907
     10107.36       0.4445676
     10108.18       0.4443446
       10109.       0.4441213
     10109.82       0.4438984
     10110.64       0.4436502
     10111.47       0.4433946
     10112.29       0.4431396
     10113.11       0.4428947
     10113.93       0.4426636
     10114.74       0.4424357
     10115.56       0.4422049
     10116.39       0.4419743
     10117.21        0.441743
     10118.02       0.4415154
     10118.84       0.4412843
     10119.66       0.4410532
     10120.49       0.4408401
     10121.31       0.4406395
     10122.13       0.4404388
     10122.95       0.4402461
     10123.78       0.4400823
      10124.6       0.4399187
     10125.42       0.4397551
     10126.24        0.439591
     10127.07       0.4394272
     10127.88       0.4392654
      10128.7       0.4391015
     10129.52       0.4389374
     10130.35       0.4387729
     10131.17        0.438608
     10131.99       0.4384436
      10132.8       0.4382826
     10133.63       0.4381746
     10134.45       0.4380665
     10135.28       0.4379582
      10136.1       0.4378497
     10136.92       0.4377416
     10137.75       0.4376331
     10138.57       0.4375246
     10139.39       0.4374162
     10140.22       0.4373077
     10141.04       0.4371986
     10141.87       0.4370893
     10142.68       0.4369818
      10143.5       0.4369272
     10144.33       0.4368804
     10145.15       0.4368336
     10145.97       0.4367865
     10146.79       0.4367402
     10147.61       0.4366934
     10148.44       0.4366463
     10149.26        0.436599
     10150.09        0.436552
     10150.91       0.4365045
     10151.74       0.4364572
     10152.56       0.4364096
     10153.39       0.4364173
     10154.21       0.4364456
     10155.04       0.4364739
     10155.86        0.436502
     10156.69       0.4365301
     10157.51       0.4365585
     10158.33       0.4365863
     10159.15       0.4366144
     10159.98       0.4366427
     10160.79         0.43667
     10161.62       0.4366977
     10162.44       0.4367256
     10163.27       0.4368002
     10164.09        0.436908
     10164.92       0.4370161
     10165.75       0.4371241
     10166.57       0.4372321
      10167.4       0.4373402
     10168.22       0.4374483
     10169.05       0.4375566
     10169.88       0.4376647
     10170.69        0.437771
     10171.53         0.43788
     10172.35       0.4379879
     10173.17       0.4381261
       10174.       0.4383027
     10174.82       0.4384793
     10175.64       0.4386539
     10176.47       0.4388306
     10177.29       0.4390073
     10178.12       0.4391843
     10178.95       0.4393612
     10179.77       0.4395384
      10180.6       0.4396924
     10181.43       0.4398379
     10182.25       0.4399835
     10183.07       0.4401442
     10183.91       0.4403427
     10184.74       0.4405385
     10185.55       0.4407322
     10186.38       0.4409282
     10187.21       0.4411242
     10188.03       0.4413175
     10188.85       0.4415136
     10189.69       0.4417125
     10190.51       0.4419251
     10191.34       0.4421522
     10192.17       0.4423793
     10192.99       0.4426256
     10193.82       0.4429311
     10194.65       0.4432368
     10195.48       0.4435426
     10196.31        0.443849
     10197.13       0.4441547
     10197.96       0.4444613
     10198.79       0.4447671
     10199.62       0.4450736
     10200.45       0.4453809
     10201.27        0.445685
      10202.1       0.4459937
     10202.92       0.4463075
     10203.74       0.4466436
     10204.57       0.4469838
      10205.4       0.4473249
     10206.23       0.4476657
     10207.06       0.4480066
     10207.89       0.4483474
     10208.72       0.4486885
     10209.55       0.4490299
     10210.38        0.449371
      10211.2       0.4497073
     10212.03       0.4500485
     10212.87       0.4503969
     10213.68       0.4507627
     10214.51       0.4511338
     10215.34       0.4515049
     10216.17       0.4518762
       10217.       0.4522474
     10217.83        0.452619
     10218.65       0.4529857
     10219.48       0.4533572
     10220.31       0.4537286
     10221.14       0.4540998
     10221.98       0.4544716
     10222.81       0.4548431
     10223.62       0.4552147
     10224.46       0.4555919
      10225.3       0.4559737
     10226.12       0.4563459
     10226.95       0.4567228
     10227.78       0.4571003
     10228.61       0.4574775
     10229.44       0.4578551
     10230.27       0.4582324
      10231.1         0.45861
     10231.94       0.4589874
     10232.76       0.4593599
     10233.59       0.4597136
     10234.42       0.4600664
     10235.25        0.460419
     10236.08       0.4607718
     10236.91       0.4611245
     10237.75       0.4614775
     10238.58       0.4618307
      10239.4       0.4621791
     10240.24       0.4625373
     10241.07       0.4628901
     10241.89       0.4632381
     10242.73       0.4635914
     10243.56       0.4639268
     10244.39         0.46426
     10245.22       0.4645931
     10246.06       0.4649269
     10246.88        0.465256
     10247.71       0.4655894
     10248.54       0.4659232
     10249.38       0.4662572
     10250.21       0.4665908
     10251.04       0.4669245
     10251.86        0.467254
      10252.7       0.4675879
     10253.53       0.4678812
     10254.36       0.4681685
     10255.19       0.4684556
     10256.03       0.4687429
     10256.86       0.4690302
     10257.69        0.469318
     10258.53       0.4696054
     10259.36        0.469893
     10260.19       0.4701806
     10261.03        0.470468
     10261.85       0.4707516
     10262.68       0.4710391
     10263.52       0.4712768
     10264.35       0.4715056
     10265.19       0.4717342
     10266.02        0.471963
     10266.84       0.4721887
     10267.68       0.4724177
     10268.51       0.4726467
     10269.35       0.4728758
     10270.18       0.4731047
     10271.01       0.4733334
     10271.85       0.4735621
     10272.68       0.4737914
     10273.52       0.4739617
     10274.35       0.4741215
     10275.18       0.4742788
     10276.01       0.4744386
     10276.85       0.4745985
     10277.68       0.4747583
     10278.52       0.4749185
     10279.35       0.4750783
     10280.19       0.4752303
     10281.02       0.4753559
     10281.86       0.4754814
     10282.68       0.4756053
     10283.52       0.4756787
     10284.35       0.4757422
     10285.19       0.4758054
     10286.02       0.4758688
     10286.86       0.4759321
     10287.68       0.4759948
     10288.52       0.4760581
     10289.37       0.4761224
     10290.19       0.4761927
     10291.03         0.47629
     10291.87       0.4763872
      10292.7       0.4764845
     10293.54       0.4765216
     10294.37       0.4765488
      10295.2       0.4765753
     10296.05       0.4766028
     10296.87       0.4766296
     10297.71       0.4766568
     10298.55       0.4766838
     10299.38       0.4767108
     10300.21       0.4767374
     10301.06       0.4767647
     10301.89       0.4767916
     10302.72        0.476818
     10303.56       0.4767925
     10304.39       0.4767602
     10305.23       0.4767278
     10306.07       0.4766953
     10306.91       0.4766625
     10307.74       0.4766302
     10308.58       0.4765975
     10309.42       0.4765649
     10310.26       0.4765323
     10311.08       0.4764997
     10311.92       0.4764668
     10312.76       0.4764337
     10313.58       0.4763701
     10314.43        0.476302
     10315.27       0.4762345
      10316.1       0.4761681
     10316.94       0.4761005
     10317.77       0.4760334
     10318.61       0.4759657
     10319.45       0.4758981
     10320.29       0.4758306
     10321.13       0.4757627
     10321.97       0.4756944
     10322.81       0.4756267
     10323.64       0.4755084
     10324.48       0.4753885
     10325.32       0.4752687
     10326.15       0.4751503
     10326.99       0.4750304
     10327.83       0.4749103
     10328.66       0.4747918
      10329.5       0.4746721
     10330.35       0.4745501
     10331.17       0.4744313
     10332.01       0.4743108
     10332.85       0.4741898
     10333.69       0.4740573
     10334.53       0.4739248
     10335.37       0.4737922
     10336.21       0.4736601
     10337.05       0.4735273
     10337.89       0.4733947
     10338.72       0.4732637
     10339.56       0.4731311
      10340.4       0.4729978
     10341.24        0.472865
     10342.07       0.4727335
     10342.92       0.4725996
     10343.75        0.472479
     10344.59       0.4723569
     10345.43       0.4722344
     10346.27       0.4721124
     10347.11       0.4719898
     10347.95       0.4718677
     10348.79       0.4717454
     10349.63       0.4716228
     10350.48       0.4715002
     10351.32       0.4713772
     10352.16       0.4712543
       10353.       0.4711335
     10353.84       0.4710213
     10354.67       0.4709104
     10355.51       0.4707979
     10356.35       0.4706856
     10357.18       0.4705747
     10358.02       0.4704621
     10358.87       0.4703496
     10359.71       0.4702369
     10360.55        0.470124
     10361.39        0.470011
     10362.23       0.4698981
     10363.07       0.4697898
     10363.92       0.4696935
     10364.76       0.4695973
      10365.6       0.4695011
     10366.44       0.4694047
     10367.29       0.4693086
     10368.13       0.4692121
     10368.96        0.469117
      10369.8       0.4690207
     10370.64       0.4689241
     10371.49       0.4688274
     10372.32       0.4687317
     10373.16       0.4686508
       10374.       0.4685959
     10374.85        0.468541
     10375.69       0.4684862
     10376.53        0.468431
     10377.38       0.4683761
     10378.22       0.4683212
     10379.06       0.4682663
     10379.91       0.4682112
     10380.75       0.4681561
     10381.59       0.4681008
     10382.42       0.4680464
     10383.27       0.4680152
     10384.11       0.4680077
     10384.96       0.4680001
      10385.8       0.4679925
     10386.64       0.4679851
     10387.48       0.4679778
     10388.32       0.4679705
     10389.16       0.4679629
     10390.01       0.4679556
     10390.85       0.4679474
      10391.7       0.4679396
     10392.54       0.4679318
     10393.38       0.4679429
     10394.23       0.4679647
     10395.07       0.4679866
     10395.92       0.4680084
     10396.76       0.4680302
     10397.61       0.4680521
     10398.44       0.4680738
     10399.29       0.4680955
     10400.13       0.4681175
     10400.96       0.4681403
     10401.81       0.4681633
     10402.66       0.4681863
      10403.5       0.4682749
     10404.35       0.4683832
     10405.19       0.4684915
     10406.04       0.4685997
     10406.88       0.4687081
     10407.73       0.4688164
     10408.57       0.4689248
     10409.42       0.4690333
     10410.26       0.4691415
      10411.1       0.4692483
     10411.95       0.4693565
      10412.8       0.4694662
     10413.64       0.4696022
     10414.48       0.4697418
     10415.33       0.4698814
     10416.16       0.4700193
     10417.01       0.4701592
     10417.86       0.4702989
      10418.7       0.4704387
     10419.55       0.4705786
      10420.4       0.4707182
     10421.23       0.4708562
     10422.09       0.4709976
     10422.94       0.4711408
     10423.78       0.4713152
     10424.62       0.4714871
     10425.48        0.471664
     10426.33       0.4718386
     10427.16       0.4720108
     10428.01       0.4721852
     10428.86       0.4723598
     10429.69       0.4725323
     10430.54       0.4727066
      10431.4       0.4728837
     10432.23       0.4730558
     10433.08       0.4732379
     10433.93       0.4734413
     10434.78       0.4736446
     10435.63       0.4738481
     10436.47       0.4740516
     10437.32       0.4742551
     10438.17       0.4744587
     10439.02       0.4746623
     10439.85       0.4748632
      10440.7       0.4750668
     10441.56       0.4752731
      10442.4       0.4754739
     10443.25       0.4756852
      10444.1       0.4759056
     10444.93        0.476123
     10445.78       0.4763436
     10446.63       0.4765641
     10447.48       0.4767846
     10448.33       0.4770055
     10449.18       0.4772262
     10450.01       0.4774433
     10450.88       0.4776318
     10451.72       0.4778174
     10452.56       0.4780006
     10453.41       0.4781957
     10454.26       0.4783961
     10455.11       0.4785962
     10455.96       0.4787964
     10456.81       0.4789968
     10457.66       0.4791972
     10458.51       0.4793975
     10459.36       0.4795979
      10460.2       0.4798038
     10461.05       0.4800392
      10461.9       0.4802747
     10462.75       0.4805101
      10463.6       0.4807455
     10464.45       0.4809804
      10465.3       0.4812158
     10466.14       0.4814481
     10466.99       0.4816835
     10467.85       0.4819219
     10468.69       0.4821544
     10469.54       0.4823902
     10470.39       0.4826257
     10471.24       0.4828611
     10472.09       0.4830965
     10472.94       0.4833303
     10473.79       0.4835457
     10474.64        0.483761
     10475.48       0.4839735
     10476.33       0.4841888
     10477.18       0.4844042
     10478.04       0.4846198
     10478.89       0.4848356
     10479.74       0.4850509
     10480.59       0.4852664
     10481.43       0.4854791
     10482.28       0.4856948
     10483.13       0.4859008
     10483.99       0.4860853
     10484.84       0.4862701
     10485.69       0.4864548
     10486.53       0.4866368
     10487.39       0.4868243
     10488.25        0.487009
     10489.09       0.4871913
     10489.94       0.4873764
     10490.79       0.4875612
     10491.64       0.4877458
      10492.5       0.4879308
     10493.35       0.4880992
      10494.2       0.4882549
     10495.04       0.4884085
     10495.89        0.488564
     10496.75       0.4887196
      10497.6       0.4888755
     10498.45        0.489031
     10499.31       0.4891871
     10500.16       0.4893363
     10501.01       0.4894582
     10501.87       0.4895802
     10502.72       0.4897021
     10503.57       0.4897818
     10504.43       0.4898515
     10505.27       0.4899203
     10506.12         0.48999
     10506.97       0.4900599
     10507.83       0.4901297
     10508.68       0.4901996
     10509.54       0.4902696
     10510.38       0.4903385
     10511.23       0.4904083
     10512.09       0.4904781
     10512.94       0.4905452
     10513.79        0.490579
     10514.65       0.4906127
     10515.49       0.4906461
     10516.36       0.4906802
     10517.21        0.490714
     10518.06       0.4907473
     10518.91        0.490781
     10519.76       0.4908148
     10520.62       0.4908485
     10521.47        0.490882
     10522.33       0.4909156
     10523.18       0.4909387
     10524.04       0.4909424
     10524.89       0.4909463
     10525.74       0.4909501
     10526.59       0.4909541
     10527.45       0.4909578
     10528.29       0.4909615
     10529.16       0.4909655
     10530.01       0.4909694
     10530.86        0.490973
     10531.71       0.4909767
     10532.57       0.4909804
     10533.43       0.4909501
     10534.28       0.4909002
     10535.14         0.49085
     10535.99       0.4908001
     10536.85         0.49075
     10537.71       0.4906998
     10538.55       0.4906503
     10539.41          0.4906
     10540.28       0.4905492
     10541.12       0.4904998
     10541.98       0.4904494
     10542.83        0.490399
     10543.69       0.4903163
     10544.54       0.4902327
      10545.4       0.4901463
     10546.26       0.4900616
     10547.11       0.4899778
     10547.96        0.489893
     10548.82       0.4898079
     10549.68        0.489723
     10550.53       0.4896379
     10551.39        0.489553
     10552.25       0.4894679
     10553.11       0.4893786
     10553.96       0.4892768
     10554.81       0.4891762
     10555.67       0.4890744
     10556.52       0.4889725
     10557.37       0.4888717
     10558.23       0.4887698
      10559.1       0.4886666
     10559.94       0.4885659
      10560.8       0.4884639
     10561.66        0.488362
     10562.52       0.4882596
     10563.38       0.4881478
     10564.23       0.4880281
     10565.09       0.4879087
     10565.95       0.4877888
     10566.81        0.487669
     10567.67       0.4875492
     10568.52       0.4874311
     10569.39       0.4873098
     10570.23       0.4871913
     10571.09       0.4870716
     10571.95       0.4869515
      10572.8       0.4868331
     10573.66       0.4867193
     10574.52       0.4866061
     10575.38       0.4864928
     10576.24       0.4863796
     10577.09       0.4862662
     10577.95        0.486153
     10578.81       0.4860399
     10579.67       0.4859267
     10580.53       0.4858135
     10581.39       0.4856998
     10582.25       0.4855866
     10583.11       0.4854714
     10583.96        0.485351
     10584.82       0.4852293
     10585.68       0.4851075
     10586.54       0.4849856
     10587.39       0.4848652
     10588.26        0.484742
     10589.11       0.4846216
     10589.97       0.4844997
     10590.83       0.4843777
     10591.69       0.4842559
     10592.55       0.4841337
     10593.41       0.4840381
     10594.27       0.4839604
     10595.13       0.4838829
     10595.99       0.4838052
     10596.86       0.4837279
     10597.72       0.4836501
     10598.58       0.4835726
     10599.43        0.483496
     10600.29       0.4834173
     10601.15       0.4833366
     10602.01       0.4832558
     10602.86       0.4831761
     10603.72       0.4831057
     10604.58       0.4830355
     10605.45       0.4829654
     10606.31       0.4828953
     10607.17       0.4828252
     10608.03       0.4827553
     10608.89       0.4826852
     10609.75       0.4826152
     10610.62       0.4825452
     10611.48        0.482475
     10612.34       0.4824048
      10613.2       0.4823455
     10614.07       0.4823068
     10614.92       0.4822687
     10615.78       0.4822301
     10616.64       0.4821914
     10617.49       0.4821534
     10618.36       0.4821146
     10619.22        0.482076
     10620.08       0.4820374
     10620.94       0.4819987
     10621.81       0.4819599
     10622.67       0.4819212
     10623.53       0.4819117
      10624.4       0.4819135
     10625.26       0.4819153
     10626.12       0.4819172
     10626.99        0.481919
     10627.85       0.4819207
      10628.7       0.4819226
     10629.56       0.4819244
     10630.43       0.4819262
     10631.29       0.4819281
     10632.16       0.4819297
     10633.02       0.4819345
     10633.87       0.4819595
     10634.74       0.4819847
      10635.6         0.48201
     10636.46       0.4820351
     10637.33       0.4820605
     10638.19       0.4820856
     10639.06       0.4821109
     10639.92       0.4821362
     10640.79       0.4821612
     10641.64       0.4821861
     10642.52       0.4822116
     10643.38       0.4822555
     10644.23       0.4823148
      10645.1       0.4823748
     10645.96       0.4824348
     10646.82       0.4824942
     10647.68       0.4825541
     10648.55       0.4826142
     10649.41       0.4826743
     10650.28       0.4827344
     10651.14       0.4827943
     10652.01       0.4828545
     10652.87       0.4829146
     10653.74       0.4829998
     10654.59       0.4830851
     10655.47       0.4831731
     10656.34       0.4832595
     10657.19        0.483345
     10658.06       0.4834317
     10658.92       0.4835182
     10659.79       0.4836048
     10660.65       0.4836915
     10661.52       0.4837783
     10662.39       0.4838649
     10663.24       0.4839587
     10664.11       0.4840677
     10664.97       0.4841767
     10665.84       0.4842857
     10666.71       0.4843948
     10667.57       0.4845039
     10668.43       0.4846116
     10669.31        0.484722
     10670.17       0.4848311
     10671.03       0.4849388
      10671.9        0.485048
     10672.76        0.485157
     10673.63       0.4853007
      10674.5        0.485452
     10675.37        0.485603
     10676.23       0.4857545
     10677.09       0.4859036
     10677.96        0.486055
     10678.82       0.4862064
     10679.69       0.4863579
     10680.56       0.4865326
     10681.43       0.4867204
      10682.3       0.4869082
     10683.16       0.4870953
     10684.02       0.4872784
      10684.9       0.4874667
     10685.77       0.4876524
     10686.62       0.4878357
     10687.49       0.4880215
     10688.36       0.4882075
     10689.23       0.4883932
      10690.1       0.4885752
     10690.97       0.4887248
     10691.82       0.4888724
     10692.69       0.4890221
     10693.56       0.4891697
     10694.43       0.4893168
      10695.3       0.4894637
     10696.17       0.4896108
     10697.03       0.4897562
     10697.89       0.4899033
     10698.78       0.4900524
     10699.64       0.4901995
      10700.5       0.4903447
     10701.37       0.4904921
     10702.24        0.490639
     10703.11        0.490786
     10703.98       0.4909315
     10704.85       0.4910768
     10705.72       0.4912223
     10706.59       0.4913678
     10707.46       0.4915133
     10708.32       0.4916567
     10709.19       0.4918024
     10710.06       0.4919478
     10710.93       0.4920933
      10711.8        0.492239
     10712.67       0.4923846
     10713.53       0.4925169
      10714.4        0.492646
     10715.27       0.4927752
     10716.14       0.4929046
     10717.01       0.4930336
     10717.88        0.493163
     10718.75       0.4932923
     10719.62       0.4934215
     10720.49       0.4935508
     10721.35       0.4936784
     10722.24       0.4938096
     10723.11        0.493935
     10723.97       0.4940425
     10724.84       0.4941518
     10725.71       0.4942607
     10726.58       0.4943698
     10727.45       0.4944788
     10728.32       0.4945882
     10729.18       0.4946958
     10730.06       0.4948049
     10730.93       0.4949141
      10731.8       0.4950233
     10732.67       0.4951328
     10733.54       0.4952292
      10734.4       0.4953186
     10735.28        0.495409
     10736.16       0.4955009
     10737.02       0.4955907
     10737.89       0.4956811
     10738.77       0.4957715
     10739.64       0.4958625
     10740.51       0.4959533
     10741.38       0.4960438
     10742.26       0.4961345
     10743.13       0.4962212
     10743.99       0.4962909
     10744.86        0.496362
     10745.74       0.4964332
     10746.61       0.4965038
     10747.48       0.4965747
     10748.36       0.4966454
     10749.23       0.4967166
      10750.1       0.4967875
     10750.96       0.4968575
     10751.85       0.4969293
     10752.72       0.4970005
     10753.58       0.4970465
     10754.46        0.497085
     10755.33       0.4971231
     10756.21       0.4971615
     10757.08       0.4971998
     10757.95       0.4972379
     10758.82       0.4972757
     10759.69       0.4973139
     10760.57       0.4973522
     10761.44       0.4973906
     10762.31       0.4974291
     10763.19       0.4974602
     10764.05       0.4974712
     10764.93       0.4974825
     10765.81       0.4974941
     10766.67       0.4975052
     10767.55       0.4975163
     10768.42       0.4975279
      10769.3       0.4975391
     10770.17       0.4975504
     10771.05       0.4975618
     10771.92       0.4975732
      10772.8       0.4975845
     10773.68       0.4975696
     10774.54       0.4975498
     10775.41       0.4975296
     10776.29       0.4975092
     10777.15       0.4974893
     10778.03        0.497469
     10778.91       0.4974487
     10779.78       0.4974284
     10780.66       0.4974082
     10781.53       0.4973882
     10782.41       0.4973682
     10783.29       0.4973405
     10784.16       0.4973007
     10785.04       0.4972605
     10785.91       0.4972206
     10786.79       0.4971805
     10787.67       0.4971402
     10788.53       0.4971009
     10789.41       0.4970609
      10790.3       0.4970204
     10791.16        0.496981
     10792.04        0.496941
     10792.92       0.4969009
     10793.78       0.4968461
     10794.66       0.4967893
     10795.55       0.4967319
     10796.41       0.4966759
     10797.29       0.4966192
     10798.17       0.4965624
     10799.04       0.4965055
     10799.92       0.4964488
      10800.8       0.4963941
     10801.68       0.4963395
     10802.55       0.4962848
     10803.43       0.4962223
      10804.3       0.4961536
     10805.17        0.496084
     10806.05       0.4960143
     10806.92       0.4959454
      10807.8       0.4958758
     10808.67       0.4958061
     10809.55       0.4957363
     10810.43       0.4956668
     10811.31       0.4955972
     10812.19       0.4955277
     10813.07       0.4954591
     10813.95       0.4953974
     10814.82       0.4953357
      10815.7       0.4952739
     10816.58       0.4952123
     10817.46       0.4951505
     10818.34       0.4950888
     10819.21       0.4950278
     10820.09       0.4949661
     10820.96       0.4949044
     10821.84       0.4948429
     10822.72       0.4947812
     10823.59       0.4947221
     10824.47       0.4946629
     10825.35       0.4946036
     10826.23       0.4945444
     10827.11        0.494485
     10827.99       0.4944257
     10828.87       0.4943664
     10829.75       0.4943069
     10830.63       0.4942477
     10831.51       0.4941885
     10832.39       0.4941292
     10833.27       0.4940726
     10834.15       0.4940211
     10835.02       0.4939703
      10835.9       0.4939187
     10836.78       0.4938672
     10837.66       0.4938158
     10838.54       0.4937642
     10839.41       0.4937133
     10840.29       0.4936618
     10841.17       0.4936103
     10842.05        0.493559
     10842.93       0.4935078
     10843.81       0.4934699
     10844.69       0.4934328
     10845.58       0.4933954
     10846.46       0.4933581
     10847.34       0.4933208
     10848.22       0.4932836
      10849.1       0.4932465
     10849.97       0.4932096
     10850.85       0.4931726
     10851.73       0.4931355
      10852.6       0.4930987
     10853.48       0.4930752
     10854.38        0.493061
     10855.25       0.4930471
     10856.13        0.493033
     10857.01       0.4930191
     10857.89       0.4930051
     10858.78       0.4929911
     10859.66       0.4929771
     10860.54       0.4929861
     10861.42       0.4930097
     10862.31       0.4930333
     10863.18       0.4930592
     10864.07       0.4930949
     10864.95         0.49313
     10865.84       0.4931653
     10866.71       0.4931999
     10867.59       0.4932352
     10868.47       0.4932705
     10869.35       0.4933051
     10870.23       0.4933307
     10871.11       0.4933286
       10872.       0.4933267
     10872.88       0.4933246
     10873.76       0.4933427
     10874.65       0.4933634
     10875.53       0.4933839
     10876.41       0.4934044
     10877.28       0.4934246
     10878.18       0.4934454
     10879.06       0.4934661
     10879.94       0.4934864
     10880.82       0.4935072
      10881.7       0.4935279
     10882.58       0.4935483
     10883.47       0.4935842
     10884.36       0.4936315
     10885.23       0.4936785
     10886.11       0.4937258
       10887.       0.4937733
     10887.88       0.4938208
     10888.77       0.4938682
     10889.65       0.4939156
     10890.54       0.4939633
     10891.42       0.4940111
     10892.31       0.4940588
     10893.18       0.4941086
     10894.07       0.4941679
     10894.96       0.4942278
     10895.83       0.4942862
     10896.72       0.4943456
     10897.61       0.4944047
     10898.48       0.4944633
     10899.37       0.4945225
     10900.25       0.4945821
     10901.14       0.4946415
     10902.02       0.4947008
     10902.91       0.4947605
     10903.79       0.4948279
     10904.68       0.4948964
     10905.57       0.4949648
     10906.45       0.4950334
     10907.33       0.4951007
     10908.22       0.4951702
     10909.11       0.4952388
     10909.99       0.4953062
     10910.87       0.4953751
     10911.76       0.4954437
     10912.64       0.4955125
     10913.53       0.4955886
     10914.42       0.4956689
     10915.29       0.4957484
     10916.18       0.4958286
     10917.07       0.4959092
     10917.95       0.4959898
     10918.84       0.4960703
     10919.73       0.4961509
      10920.6       0.4962305
     10921.49       0.4963113
     10922.39       0.4963932
     10923.27       0.4964742
     10924.15       0.4965588
     10925.04       0.4966428
     10925.93       0.4967273
     10926.82       0.4968116
      10927.7        0.496896
     10928.59       0.4969804
     10929.48        0.497065
     10930.37       0.4971494
     10931.24        0.497233
     10932.13       0.4973177
     10933.02       0.4974025
     10933.91       0.4974844
      10934.8       0.4975661
     10935.69       0.4976477
     10936.56       0.4977285
     10937.45       0.4978104
     10938.34       0.4978922
     10939.23       0.4979739
     10940.12       0.4980559
     10941.01        0.498138
     10941.88       0.4982191
     10942.78       0.4983023
     10943.67       0.4983756
     10944.55       0.4984454
     10945.44       0.4985162
     10946.33       0.4985866
     10947.22       0.4986574
     10948.11       0.4987279
       10949.       0.4987986
     10949.89       0.4988695
     10950.76       0.4989392
     10951.65       0.4990102
     10952.56       0.4990822
     10953.43       0.4991458
     10954.32       0.4992032
     10955.21       0.4992608
      10956.1       0.4993183
     10956.99       0.4993761
     10957.88       0.4994336
     10958.78       0.4994912
     10959.67       0.4995486
     10960.56       0.4996065
     10961.43       0.4996636
     10962.33       0.4997217
     10963.22        0.499774
     10964.11       0.4998092
       10965.       0.4998444
     10965.89       0.4998793
     10966.77        0.499914
     10967.66       0.4999493
     10968.55       0.4999842
     10969.44       0.5000195
     10970.33       0.5000689
     10971.22       0.5001428
     10972.12       0.5002165
     10973.01       0.5002903
      10973.9        0.500351
     10974.78       0.5004108
     10975.67       0.5004714
     10976.56       0.5005321
     10977.45       0.5005929
     10978.34       0.5006535
     10979.24       0.5007144
     10980.13       0.5007695
     10981.02       0.5007922
     10981.91        0.500815
     10982.79       0.5008374
     10983.69       0.5008572
     10984.58       0.5008759
     10985.47        0.500895
     10986.35       0.5009136
     10987.26       0.5009328
     10988.15       0.5009517
     10989.03       0.5009704
     10989.92       0.5009893
     10990.83           0.501
     10991.71       0.5010102
      10992.6       0.5010203
      10993.5       0.5010124
     10994.39       0.5009897
     10995.28       0.5009667
     10996.17       0.5009435
     10997.07       0.5009206
     10997.96       0.5008978
     10998.84       0.5008751
     10999.74       0.5008521
     11000.63       0.5008329
     11001.52       0.5008155
     11002.41       0.5007982
     11003.31       0.5007749
     11004.21       0.5007405
     11005.09       0.5007066
     11005.98       0.5006723
     11006.89       0.5006375
     11007.77       0.5006038
     11008.67       0.5005695
     11009.56       0.5005351
     11010.46       0.5005009
     11011.35       0.5004665
     11012.24        0.500432
     11013.13       0.5003958
     11014.02       0.5003432
     11014.92       0.5002906
      11015.8       0.5002387
     11016.71       0.5001851
      11017.6       0.5001325
     11018.49       0.5000805
     11019.38       0.5000278
     11020.28       0.4999751
     11021.17       0.4999224
     11022.07       0.4998696
     11022.96       0.4998168
     11023.86       0.4997533
     11024.75       0.4996891
     11025.65       0.4996248
     11026.54       0.4995607
     11027.44       0.4994964
     11028.34       0.4994322
     11029.23       0.4993678
     11030.12       0.4993044
     11031.01       0.4992402
     11031.91       0.4991759
     11032.79       0.4991126
     11033.69       0.4990479
     11034.59       0.4989835
     11035.48       0.4989189
     11036.38       0.4988543
     11037.28       0.4987898
     11038.17       0.4987252
     11039.07       0.4986607
     11039.97       0.4985963
     11040.86       0.4985316
     11041.76        0.498467
     11042.66       0.4984024
     11043.54       0.4983365
     11044.44        0.498268
     11045.34       0.4981996
     11046.24       0.4981312
     11047.13       0.4980628
     11048.03       0.4979944
     11048.92       0.4979269
     11049.81       0.4978584
     11050.71         0.49779
     11051.61       0.4977214
     11052.51       0.4976531
     11053.41       0.4975834
      11054.3        0.497512
      11055.2       0.4974407
      11056.1       0.4973692
       11057.       0.4972979
      11057.9       0.4972263
      11058.8        0.497155
     11059.68       0.4970846
     11060.58       0.4970379
     11061.48       0.4970047
     11062.38       0.4969716
     11063.28       0.4969415
     11064.16       0.4969195
     11065.06       0.4968972
     11065.96       0.4968752
     11066.86       0.4968528
     11067.76       0.4968306
     11068.66       0.4968082
     11069.56       0.4967859
     11070.46        0.496744
     11071.36       0.4966835
     11072.26       0.4966227
     11073.16       0.4965642
     11074.06        0.496519
     11074.96       0.4964738
     11075.84       0.4964291
     11076.74       0.4963838
     11077.64       0.4963386
     11078.54       0.4962934
     11079.43       0.4962487
     11080.33       0.4962034
     11081.23       0.4961582
     11082.13       0.4961129
     11083.03       0.4960676
     11083.93        0.496035
     11084.83       0.4960024
     11085.74       0.4959697
     11086.64        0.495937
     11087.54       0.4959045
     11088.44       0.4958719
     11089.34       0.4958393
     11090.23       0.4958071
     11091.14       0.4957741
     11092.03       0.4957418
     11092.93       0.4957092
     11093.83       0.4956917
     11094.73       0.4956762
     11095.62       0.4956611
     11096.53       0.4956454
     11097.43       0.4956301
     11098.33       0.4956146
     11099.23       0.4955991
     11100.13       0.4955836
     11101.03       0.4955682
     11101.94       0.4955527
     11102.84       0.4955373
     11103.73        0.495547
     11104.64       0.4955652
     11105.54       0.4955829
     11106.43       0.4956002
     11107.34        0.495618
     11108.24       0.4956357
     11109.13       0.4956532
     11110.03       0.4956709
     11110.94       0.4956885
     11111.85       0.4957064
     11112.74       0.4957239
     11113.64        0.495757
     11114.55       0.4957981
     11115.45       0.4958391
     11116.35         0.49588
     11117.26       0.4959211
     11118.16        0.495962
     11119.06       0.4960032
     11119.97       0.4960442
     11120.86       0.4960849
     11121.77       0.4961263
     11122.68       0.4961675
     11123.57       0.4962131
     11124.47       0.4962627
     11125.38       0.4963125
     11126.27       0.4963616
     11127.17       0.4964113
     11128.08       0.4964612
     11128.98       0.4965107
     11129.88       0.4965608
     11130.79       0.4966105
     11131.69       0.4966605
      11132.6       0.4967103
      11133.5       0.4967699
     11134.39       0.4968377
      11135.3       0.4969071
     11136.22        0.496977
     11137.11       0.4970454
     11138.01       0.4971145
     11138.92       0.4971838
     11139.82       0.4972529
     11140.73       0.4973533
     11141.63       0.4974611
     11142.53       0.4975675
     11143.43       0.4976789
     11144.34       0.4977957
     11145.24       0.4979124
     11146.15        0.498029
     11147.05       0.4981456
     11147.95       0.4982605
     11148.85       0.4983774
     11149.77       0.4984957
     11150.67       0.4985825
     11151.57       0.4986604
     11152.48       0.4987386
     11153.38       0.4988199
     11154.29       0.4989063
      11155.2        0.498993
      11156.1       0.4990798
     11157.01       0.4991664
      11157.9       0.4992519
     11158.81       0.4993385
     11159.72       0.4994255
     11160.62       0.4995123
     11161.53       0.4995988
     11162.44       0.4996856
     11163.34        0.499775
     11164.25       0.4998697
     11165.15       0.4999633
     11166.05       0.5000583
     11166.97       0.5001546
     11167.87       0.5002479
     11168.78       0.5003433
     11169.68       0.5004382
     11170.59       0.5005329
      11171.5       0.5006281
     11172.41       0.5007228
      11173.3       0.5008154
     11174.21       0.5009057
     11175.12       0.5009957
     11176.03       0.5010859
     11176.93       0.5011763
     11177.84       0.5012664
     11178.74       0.5013556
     11179.65       0.5014455
     11180.55        0.501536
     11181.46       0.5016261
     11182.37       0.5017165
     11183.28        0.501805
     11184.19       0.5018877
      11185.1       0.5019708
     11186.01       0.5020535
     11186.92       0.5021366
     11187.82       0.5022194
     11188.73       0.5023025
     11189.63       0.5023843
     11190.54       0.5024672
     11191.45       0.5025502
     11192.36        0.502633
     11193.27       0.5027121
     11194.18       0.5027768
     11195.09       0.5028419
     11195.98       0.5029057
     11196.89       0.5029705
      11197.8       0.5030354
     11198.71       0.5031002
     11199.62       0.5031652
     11200.53       0.5032547
     11201.43       0.5033597
     11202.35       0.5034675
     11203.26       0.5035707
     11204.16       0.5036592
     11205.07        0.503749
     11205.98       0.5038388
     11206.89       0.5039287
      11207.8       0.5040184
     11208.71       0.5041084
     11209.62       0.5041981
     11210.52       0.5042644
     11211.43       0.5043149
     11212.34       0.5043656
     11213.26       0.5044136
     11214.17       0.5044511
     11215.08       0.5044888
     11215.99       0.5045263
      11216.9       0.5045639
      11217.8       0.5046011
     11218.71       0.5046387
     11219.63       0.5046768
     11220.53       0.5047139
     11221.45       0.5047515
     11222.36       0.5047891
     11223.27       0.5048209
     11224.18        0.504832
     11225.09       0.5048431
     11225.99        0.504854
     11226.91       0.5048649
     11227.82        0.504876
     11228.73       0.5048872
     11229.64       0.5048981
     11230.55       0.5049092
     11231.46         0.50492
     11232.38       0.5049313
     11233.29       0.5049353
     11234.19        0.504918
     11235.11       0.5049002
     11236.02       0.5048826
     11236.93       0.5048649
     11237.84       0.5048472
     11238.76       0.5048295
     11239.67       0.5048116
     11240.58       0.5047939
      11241.5       0.5047764
     11242.41       0.5047585
     11243.31       0.5047351
     11244.23       0.5046937
     11245.14       0.5046526
     11246.04       0.5046118
     11246.95       0.5045704
     11247.88       0.5045286
     11248.78       0.5044879
      11249.7       0.5044465
     11250.61       0.5044054
     11251.52        0.504364
     11252.44       0.5043226
     11253.35        0.504276
     11254.27       0.5042168
     11255.18       0.5041576
      11256.1       0.5040984
       11257.         0.50404
     11257.92       0.5039799
     11258.84       0.5039206
     11259.74       0.5038622
     11260.66        0.503803
     11261.57       0.5037438
     11262.47       0.5036854
     11263.39       0.5036199
     11264.32       0.5035416
     11265.22       0.5034654
     11266.14       0.5033882
     11267.05       0.5033109
     11267.97       0.5032336
     11268.88       0.5031562
      11269.8       0.5030789
     11270.71       0.5030323
     11271.63       0.5029943
     11272.54       0.5029562
     11273.45       0.5029121
     11274.36       0.5028568
     11275.28       0.5028016
      11276.2       0.5027461
      11277.1       0.5026915
     11278.03       0.5026355
     11278.95       0.5025799
     11279.85       0.5025252
     11280.77       0.5024369
     11281.68       0.5023419
      11282.6        0.502247
     11283.52       0.5021464
     11284.43       0.5020392
     11285.35        0.501932
     11286.27       0.5018247
     11287.18       0.5017172
      11288.1       0.5016102
     11289.02       0.5015026
     11289.94       0.5013953
     11290.84       0.5012893
     11291.76       0.5011821
     11292.67       0.5010747
     11293.58       0.5009657
      11294.5       0.5008523
     11295.42       0.5007389
     11296.33       0.5006256
     11297.25       0.5005124
     11298.17       0.5003991
     11299.09       0.5002857
     11300.01       0.5001723
     11300.92       0.5000587
     11301.84       0.4999453
     11302.76       0.4998319
     11303.68       0.4997206
      11304.6       0.4996108
      11305.5       0.4995022
     11306.42       0.4993921
     11307.34       0.4992821
     11308.26       0.4991723
     11309.18       0.4990621
     11310.08       0.4989534
       11311.       0.4988432
     11311.92       0.4987334
     11312.84       0.4986232
     11313.76       0.4985195
     11314.68       0.4984189
      11315.6       0.4983178
     11316.52       0.4982168
     11317.44        0.498116
     11318.36        0.498015
     11319.28       0.4979138
      11320.2        0.497813
      11321.1       0.4977132
     11322.02       0.4976121
     11322.94        0.497511
     11323.86       0.4974124
     11324.78       0.4973141
      11325.7       0.4972154
     11326.61       0.4971185
     11327.53         0.49702
     11328.45       0.4969214
     11329.37       0.4968232
     11330.29       0.4967371
     11331.21       0.4966778
     11332.14       0.4966185
     11333.06       0.4965591
     11333.98       0.4965235
      11334.9       0.4964896
     11335.82       0.4964555
     11336.74       0.4964213
     11337.66       0.4963872
     11338.57       0.4963535
     11339.49       0.4963194
     11340.41       0.4962678
     11341.32       0.4961953
     11342.24       0.4961221
     11343.16       0.4960511
     11344.09       0.4960151
     11345.01       0.4959795
     11345.93       0.4959437
     11346.85       0.4959078
     11347.77       0.4958718
      11348.7        0.495836
     11349.62       0.4958001
     11350.54       0.4957643
     11351.46       0.4957284
     11352.37       0.4956928
     11353.29       0.4956613
     11354.22       0.4956464
     11355.14       0.4956319
     11356.06       0.4956171
     11356.98       0.4956025
      11357.9       0.4955879
     11358.82       0.4955734
     11359.74       0.4955584
     11360.66       0.4955437
     11361.59       0.4955292
     11362.51       0.4955145
     11363.43       0.4955108
     11364.36       0.4955276
     11365.28       0.4955441
      11366.2       0.4955611
     11367.11       0.4955777
     11368.05       0.4955947
     11368.97       0.4956117
     11369.89       0.4956281
     11370.81       0.4956448
     11371.73        0.495662
     11372.64       0.4956784
     11373.57       0.4957064
     11374.49       0.4957468
     11375.42       0.4957866
     11376.34       0.4958266
     11377.27       0.4958666
     11378.19       0.4959069
     11379.11       0.4959467
     11380.04       0.4959883
     11380.96       0.4960676
     11381.89       0.4961471
     11382.81       0.4962262
     11383.73       0.4963196
     11384.65       0.4964221
     11385.59       0.4965258
      11386.5        0.496627
     11387.43       0.4967295
     11388.35        0.496832
     11389.26       0.4969331
     11390.19       0.4970279
     11391.12       0.4970911
     11392.04       0.4971544
     11392.97       0.4972176
     11393.89       0.4973005
     11394.81       0.4973863
     11395.74       0.4974741
     11396.67        0.497561
     11397.58       0.4976466
     11398.51       0.4977333
     11399.44       0.4978203
     11400.36       0.4979084
     11401.29       0.4979986
     11402.21       0.4980888
     11403.14       0.4981797
     11404.07       0.4982982
     11404.99       0.4984164
     11405.91       0.4985332
     11406.83       0.4986515
     11407.76         0.49877
     11408.69       0.4988883
     11409.62       0.4990068
     11410.54       0.4991251
     11411.47       0.4992437
     11412.38       0.4993605
     11413.31       0.4994836
     11414.25       0.4996262
     11415.17       0.4997651
     11416.09       0.4999061
     11417.02       0.5000468
     11417.95        0.500188
     11418.88       0.5003289
      11419.8       0.5004697
     11420.72       0.5006089
     11421.66       0.5007517
     11422.58       0.5008909
      11423.5       0.5010345
     11424.43       0.5011819
     11425.36        0.501329
     11426.29       0.5014766
     11427.22       0.5016236
     11428.15       0.5017712
     11429.06       0.5019167
     11429.99       0.5020641
     11430.92       0.5022116
     11431.85        0.502359
     11432.78       0.5025064
     11433.71       0.5026579
     11434.62       0.5028093
     11435.56       0.5029651
     11436.49       0.5031189
     11437.41       0.5032704
     11438.34       0.5034243
     11439.27       0.5035782
      11440.2       0.5037405
     11441.13        0.503934
     11442.06       0.5041279
     11442.99       0.5043218
      11443.9       0.5045136
     11444.83       0.5047078
     11445.76       0.5049022
     11446.69       0.5050964
     11447.62       0.5052912
     11448.55       0.5054855
     11449.48       0.5056802
     11450.41       0.5058567
     11451.34       0.5060114
     11452.26       0.5061637
     11453.21       0.5063195
     11454.14       0.5064625
     11455.05       0.5066037
     11455.99       0.5067468
     11456.92       0.5068899
     11457.85        0.507033
     11458.78       0.5071762
     11459.71       0.5073194
     11460.63       0.5074604
     11461.56       0.5076038
     11462.49       0.5077471
     11463.42       0.5078908
     11464.35       0.5080357
     11465.28       0.5081806
      11466.2       0.5083237
     11467.13       0.5084687
     11468.08       0.5086157
       11469.       0.5087587
     11469.93       0.5089039
     11470.86       0.5090488
     11471.79        0.509194
     11472.73       0.5093392
     11473.66       0.5094787
     11474.59       0.5096139
     11475.52       0.5097491
     11476.46       0.5098844
     11477.37       0.5100179
     11478.31       0.5101532
     11479.24       0.5102887
     11480.16       0.5104221
     11481.11       0.5105594
     11482.04       0.5106946
     11482.96        0.510828
     11483.89       0.5109377
     11484.83       0.5110407
     11485.76       0.5111439
     11486.69       0.5112469
     11487.62         0.51135
     11488.56       0.5114533
     11489.49       0.5115564
     11490.43       0.5116785
     11491.35       0.5118203
     11492.28       0.5119644
     11493.21        0.512107
     11494.15       0.5122302
     11495.08       0.5123537
     11496.02       0.5124767
     11496.95       0.5126002
     11497.87       0.5127221
     11498.81       0.5128453
     11499.75       0.5129707
     11500.67        0.513061
     11501.61       0.5131412
     11502.54       0.5132213
     11503.48       0.5132935
     11504.41       0.5133511
     11505.35       0.5134089
     11506.28       0.5134667
     11507.22       0.5135244
     11508.15       0.5135821
     11509.07       0.5136389
     11510.01       0.5136968
     11510.95       0.5137548
     11511.87       0.5138116
      11512.8       0.5138693
     11513.74       0.5139077
     11514.67       0.5139349
     11515.61        0.513962
     11516.54       0.5139888
     11517.48        0.514016
     11518.42       0.5140432
     11519.35         0.51407
     11520.29       0.5140972
     11521.22       0.5141243
     11522.16        0.514151
      11523.1       0.5141782
     11524.02       0.5141786
     11524.97       0.5141771
     11525.89       0.5141758
     11526.83       0.5141744
     11527.77       0.5141733
     11528.69       0.5141718
     11529.63       0.5141703
     11530.56       0.5141689
      11531.5       0.5141677
     11532.44        0.514166
     11533.38       0.5141605
     11534.31       0.5141417
     11535.25       0.5141227
     11536.19       0.5141038
     11537.12       0.5140848
     11538.06       0.5140656
       11539.       0.5140469
     11539.94       0.5140277
     11540.86       0.5140467
      11541.8       0.5140689
     11542.74        0.514091
     11543.67       0.5141048
      11544.6       0.5141117
     11545.54       0.5141187
     11546.48       0.5141256
     11547.41       0.5141328
     11548.35       0.5141398
     11549.29       0.5141466
     11550.23       0.5141435
     11551.17       0.5141094
     11552.11       0.5140755
     11553.04       0.5140411
     11553.98         0.51399
     11554.92       0.5139363
     11555.86       0.5138826
      11556.8        0.513829
     11557.73       0.5137761
     11558.67       0.5137224
      11559.6       0.5136686
     11560.53       0.5136156
     11561.47       0.5135619
     11562.41       0.5135081
     11563.35       0.5134509
     11564.29       0.5133803
     11565.23       0.5133092
     11566.17       0.5132385
     11567.11       0.5131672
     11568.05       0.5130966
     11568.99       0.5130253
     11569.93       0.5129547
     11570.87       0.5128834
     11571.81       0.5128126
     11572.75       0.5127414
     11573.69       0.5126671
     11574.62       0.5125911
     11575.56       0.5125134
      11576.5       0.5124362
     11577.42       0.5123599
     11578.37       0.5122825
     11579.31       0.5122052
     11580.25       0.5121279
     11581.19       0.5120505
     11582.13        0.511973
     11583.07       0.5118958
     11584.01       0.5118129
     11584.95       0.5117294
     11585.89       0.5116458
     11586.84        0.511562
     11587.78       0.5114784
     11588.72       0.5113949
     11589.65       0.5113122
     11590.59       0.5112545
     11591.53       0.5112118
     11592.46       0.5111697
     11593.42       0.5111316
     11594.36       0.5111096
     11595.29       0.5110878
     11596.23       0.5110658
     11597.17       0.5110437
     11598.11       0.5110216
     11599.05       0.5109994
       11600.       0.5109771
     11600.94       0.5109143
     11601.88       0.5108516
     11602.83       0.5107887
     11603.77       0.5107334
     11604.71       0.5106823
     11605.65       0.5106316
     11606.58       0.5105813
     11607.53       0.5105303
     11608.47       0.5104793
      11609.4       0.5104291
     11610.34       0.5103782
     11611.29        0.510327
     11612.23       0.5102763
     11613.17       0.5102252
     11614.12       0.5101762
     11615.06       0.5101274
       11616.       0.5100785
     11616.95       0.5100297
     11617.88       0.5099815
     11618.84       0.5099318
     11619.78       0.5098828
     11620.71       0.5098346
     11621.66       0.5097857
      11622.6       0.5097367
     11623.54       0.5096933
     11624.49       0.5096582
     11625.43       0.5096232
     11626.38       0.5095883
     11627.31       0.5095538
     11628.26       0.5095188
      11629.2       0.5094838
     11630.15       0.5094551
     11631.09        0.509461
     11632.04       0.5094671
     11632.97       0.5094729
     11633.93       0.5094958
     11634.87       0.5095232
      11635.8       0.5095502
     11636.75       0.5095775
     11637.69        0.509605
     11638.64       0.5096323
     11639.59       0.5096596
     11640.53       0.5096641
     11641.48       0.5096503
     11642.41       0.5096369
     11643.36       0.5096273
      11644.3       0.5096357
     11645.25        0.509644
     11646.19       0.5096525
     11647.14       0.5096609
     11648.09       0.5096692
     11649.03       0.5096776
     11649.97       0.5096861
     11650.93       0.5096945
     11651.87       0.5097029
     11652.81       0.5097111
     11653.75       0.5097319
      11654.7       0.5097612
     11655.65       0.5097905
     11656.59       0.5098198
     11657.54       0.5098491
     11658.48        0.509878
     11659.42       0.5099072
     11660.37       0.5099365
     11661.32       0.5099658
     11662.27       0.5099951
     11663.21        0.510025
     11664.15        0.510074
      11665.1        0.510124
     11666.06       0.5101746
       11667.       0.5102244
     11667.94       0.5102739
     11668.89       0.5103236
     11669.84       0.5103735
     11670.78       0.5104234
     11671.73       0.5104734
     11672.68       0.5105234
     11673.63       0.5105803
     11674.58        0.510645
     11675.53       0.5107099
     11676.46       0.5107739
     11677.41       0.5108387
     11678.36       0.5109035
     11679.31       0.5109684
     11680.26       0.5110445
     11681.21       0.5111507
     11682.14       0.5112554
     11683.09       0.5113616
     11684.04       0.5114889
     11684.99       0.5116187
     11685.94       0.5117487
     11686.89       0.5118787
     11687.84       0.5120088
     11688.79       0.5121388
     11689.74        0.512269
     11690.68       0.5123678
     11691.63       0.5124567
     11692.59       0.5125466
     11693.53        0.512637
     11694.48       0.5127336
     11695.43       0.5128304
     11696.38       0.5129271
     11697.33       0.5130239
     11698.28       0.5131206
     11699.21       0.5132161
     11700.17       0.5133128
     11701.12       0.5134097
     11702.07       0.5135065
     11703.02       0.5136033
     11703.97       0.5137047
     11704.91       0.5138059
     11705.86       0.5139085
     11706.82       0.5140125
     11707.76       0.5141136
     11708.71       0.5142162
     11709.66       0.5143189
     11710.61       0.5144216
     11711.57       0.5145242
     11712.52       0.5146267
     11713.47       0.5147327
     11714.42       0.5148474
     11715.36       0.5149602
     11716.32       0.5150762
     11717.26       0.5151893
     11718.22       0.5153039
     11719.17       0.5154186
     11720.11       0.5155361
     11721.06       0.5156926
     11722.02       0.5158509
     11722.96       0.5160052
     11723.92       0.5161651
     11724.87       0.5163264
     11725.82       0.5164877
     11726.77       0.5166489
     11727.73       0.5168105
     11728.68       0.5169718
     11729.63       0.5171333
     11730.59       0.5172689
     11731.53       0.5173872
     11732.48        0.517507
     11733.43       0.5176241
     11734.37       0.5177313
     11735.33       0.5178401
     11736.28       0.5179489
     11737.23       0.5180578
     11738.19       0.5181668
     11739.14       0.5182756
      11740.1       0.5183844
     11741.05       0.5184934
       11742.       0.5186022
     11742.96        0.518711
     11743.91       0.5188121
     11744.87       0.5189106
     11745.82       0.5190089
     11746.77       0.5191073
     11747.73       0.5192059
     11748.67        0.519303
     11749.62       0.5194013
     11750.58       0.5194998
     11751.52       0.5195971
     11752.48       0.5196956
     11753.43       0.5197918
     11754.39       0.5198802
     11755.34       0.5199685
      11756.3        0.520057
     11757.25       0.5201455
     11758.21        0.520234
     11759.16       0.5203224
     11760.12       0.5204109
     11761.07       0.5204993
     11762.03       0.5205877
     11762.99       0.5206763
     11763.94       0.5207572
      11764.9       0.5208356
     11765.85        0.520914
     11766.78       0.5209901
     11767.74       0.5210685
      11768.7       0.5211468
     11769.65       0.5212253
     11770.61       0.5213308
     11771.56       0.5214514
     11772.52       0.5215722
     11773.48       0.5216883
     11774.43       0.5217915
     11775.39       0.5218951
     11776.35       0.5219983
      11777.3       0.5221016
     11778.26       0.5222051
     11779.22       0.5223083
     11780.17        0.522404
     11781.12       0.5224643
     11782.08       0.5225251
     11783.03       0.5225863
     11783.98        0.522625
     11784.94       0.5226591
     11785.89        0.522693
     11786.85        0.522727
     11787.81       0.5227611
     11788.77       0.5227949
     11789.72       0.5228289
     11790.68       0.5228628
     11791.64       0.5228968
      11792.6       0.5229307
     11793.56       0.5229584
     11794.51       0.5229738
     11795.47       0.5229895
     11796.43       0.5230049
     11797.39       0.5230204
     11798.33       0.5230356
     11799.29       0.5230513
     11800.25       0.5230648
     11801.21       0.5230735
     11802.16        0.523082
     11803.12       0.5230907
     11804.08       0.5230867
     11805.03       0.5230811
     11805.99       0.5230755
     11806.95       0.5230699
     11807.91       0.5230641
     11808.87       0.5230584
     11809.83       0.5230528
     11810.79       0.5230822
     11811.75       0.5231191
     11812.71       0.5231562
     11813.67       0.5231858
     11814.62       0.5232069
     11815.58       0.5232281
     11816.52        0.523249
      11817.5       0.5232706
     11818.44       0.5232915
      11819.4       0.5233127
     11820.37       0.5233177
     11821.33       0.5232963
     11822.29       0.5232751
     11823.25       0.5232534
     11824.21       0.5232186
     11825.17       0.5231838
     11826.13       0.5231489
     11827.09        0.523114
     11828.05       0.5230791
     11829.01       0.5230442
     11829.97       0.5230094
     11830.92       0.5229749
     11831.88       0.5229399
     11832.84       0.5229049
     11833.79       0.5228657
     11834.75       0.5228224
     11835.71       0.5227792
     11836.68       0.5227358
     11837.64       0.5226926
      11838.6       0.5226493
     11839.56       0.5226058
     11840.52       0.5225627
     11841.49       0.5225194
     11842.45        0.522476
     11843.41       0.5224299
     11844.37       0.5223718
     11845.33       0.5223132
      11846.3       0.5222548
     11847.26       0.5221964
     11848.22       0.5221382
     11849.17       0.5220805
     11850.14       0.5220281
      11851.1       0.5220124
     11852.05       0.5219967
     11853.01       0.5219808
     11853.97       0.5219617
     11854.94       0.5219416
      11855.9       0.5219216
     11856.86       0.5219016
     11857.83       0.5218814
     11858.79       0.5218612
     11859.75       0.5218412
     11860.72       0.5217893
     11861.68       0.5217267
     11862.65       0.5216638
      11863.6       0.5216025
     11864.56       0.5215413
     11865.54       0.5214792
     11866.48       0.5214196
     11867.44       0.5213584
      11868.4        0.521297
     11869.37       0.5212358
     11870.33       0.5211744
      11871.3       0.5211133
     11872.26       0.5210517
     11873.23       0.5209904
     11874.19       0.5209396
     11875.16       0.5208891
     11876.12       0.5208384
     11877.09        0.520788
     11878.04        0.520738
       11879.       0.5206875
     11879.98       0.5206363
     11880.93       0.5205863
      11881.9       0.5205358
     11882.86       0.5204852
     11883.83       0.5204396
     11884.78       0.5203978
     11885.75       0.5203555
     11886.71       0.5203133
     11887.68       0.5202711
     11888.65       0.5202287
     11889.61       0.5201864
     11890.58       0.5201695
     11891.54       0.5201699
     11892.51         0.52017
     11893.48        0.520171
     11894.44       0.5201746
      11895.4        0.520178
     11896.36       0.5201815
     11897.34       0.5201852
      11898.3       0.5201886
     11899.26       0.5201921
     11900.23       0.5201857
     11901.18       0.5201471
     11902.15        0.520108
     11903.12       0.5200686
     11904.08       0.5200545
     11905.05       0.5200438
     11906.02       0.5200332
     11906.97       0.5200227
     11907.95       0.5200121
     11908.92       0.5200016
     11909.88       0.5199911
     11910.84       0.5199807
     11911.81       0.5199699
     11912.78       0.5199595
     11913.75       0.5199482
     11914.71       0.5199361
     11915.68       0.5199242
     11916.65       0.5199118
     11917.61       0.5199001
     11918.58       0.5198877
     11919.54       0.5198758
     11920.51        0.519864
     11921.48       0.5198516
     11922.45       0.5198396
     11923.42       0.5198307
     11924.39       0.5198364
     11925.34       0.5198421
     11926.31       0.5198479
     11927.29       0.5198539
     11928.25       0.5198597
     11929.22       0.5198654
     11930.19       0.5198712
     11931.16       0.5198773
     11932.13        0.519883
      11933.1       0.5198888
     11934.07       0.5199193
     11935.02       0.5199541
     11935.99       0.5199897
     11936.96        0.520025
     11937.93       0.5200603
      11938.9       0.5200958
     11939.87       0.5201315
     11940.84       0.5202035
     11941.81       0.5202817
     11942.77       0.5203587
     11943.74       0.5204428
     11944.71       0.5205333
     11945.68       0.5206234
     11946.65       0.5207138
     11947.62        0.520804
     11948.59       0.5208946
     11949.56       0.5209848
     11950.52       0.5210509
     11951.51       0.5210993
     11952.48       0.5211469
     11953.43       0.5211956
     11954.41       0.5212523
     11955.38       0.5213092
     11956.35       0.5213656
     11957.32       0.5214224
     11958.28       0.5214787
     11959.25       0.5215353
     11960.22       0.5215923
     11961.19       0.5216491
     11962.17       0.5217059
     11963.14       0.5217628
     11964.11       0.5218389
     11965.07       0.5219176
     11966.04       0.5219969
     11967.03       0.5220775
     11967.99       0.5221562
     11968.96       0.5222356
     11969.93       0.5223148
      11970.9       0.5223948
     11971.88        0.522474
     11972.85       0.5225535
     11973.82       0.5226362
     11974.79       0.5227216
     11975.75       0.5228056
     11976.73       0.5228907
      11977.7       0.5229763
     11978.67       0.5230614
     11979.63       0.5231457
     11980.62       0.5232596
     11981.59        0.523388
     11982.55       0.5235145
     11983.53       0.5236419
     11984.51       0.5237671
     11985.47       0.5238891
     11986.45       0.5240126
     11987.42       0.5241364
      11988.4       0.5242603
     11989.37       0.5243841
     11990.34       0.5244925
     11991.32       0.5245733
     11992.29       0.5246538
     11993.25       0.5247334
     11994.23       0.5248238
      11995.2       0.5249143
     11996.18       0.5250049
     11997.15       0.5250955
     11998.11       0.5251846
     11999.09       0.5252756
     12000.08       0.5253675
     12001.04       0.5254633
     12002.01       0.5255603
     12002.99       0.5256572
     12003.96       0.5257483
     12004.94       0.5258368
     12005.92       0.5259253
     12006.89       0.5260139
     12007.85       0.5261014
     12008.83       0.5261899
      12009.8       0.5262785
     12010.79       0.5263684
     12011.76       0.5264558
     12012.73       0.5265444
     12013.71       0.5266324
     12014.68       0.5267197
     12015.65       0.5268056
     12016.62       0.5268928
      12017.6         0.52698
     12018.58       0.5270672
     12019.55       0.5271545
     12020.53       0.5272653
     12021.51        0.527396
     12022.48       0.5275267
     12023.46       0.5276564
     12024.44       0.5277808
     12025.42        0.527905
     12026.38       0.5280278
     12027.36       0.5281521
     12028.33       0.5282764
     12029.31        0.528401
     12030.27       0.5285113
     12031.25       0.5285923
     12032.23       0.5286732
     12033.21        0.528754
     12034.18       0.5288213
     12035.16       0.5288872
     12036.14       0.5289532
     12037.12       0.5290192
      12038.1       0.5290853
     12039.07       0.5291512
     12040.05       0.5292173
     12041.02       0.5292824
       12042.       0.5293485
     12042.97       0.5294147
     12043.95       0.5294706
     12044.93       0.5295219
     12045.91       0.5295733
     12046.89       0.5296245
     12047.87       0.5296758
     12048.83       0.5297265
     12049.81       0.5297778
     12050.79       0.5298291
     12051.77       0.5298804
     12052.75       0.5299317
     12053.73       0.5299733
     12054.71       0.5300023
     12055.69       0.5300313
     12056.67       0.5300603
     12057.65       0.5300893
     12058.63       0.5301182
     12059.59       0.5301468
     12060.57       0.5302017
     12061.55       0.5302746
     12062.53       0.5303474
      12063.5        0.530415
     12064.49       0.5304678
     12065.47       0.5305197
     12066.44       0.5305711
     12067.42        0.530623
      12068.4       0.5306753
     12069.38       0.5307272
     12070.36        0.530763
     12071.34        0.530771
     12072.33       0.5307792
     12073.31       0.5307873
     12074.27       0.5307792
     12075.25        0.530771
     12076.25       0.5307626
     12077.22       0.5307541
      12078.2       0.5307459
     12079.18       0.5307376
     12080.16       0.5307292
     12081.14       0.5307209
     12082.11       0.5307128
     12083.09       0.5307046
     12084.08       0.5306832
     12085.06       0.5306582
     12086.04       0.5306331
     12087.02       0.5306082
       12088.       0.5305833
     12088.98       0.5305584
     12089.97       0.5305333
     12090.95       0.5305085
     12091.92       0.5304837
      12092.9       0.5304588
     12093.88       0.5304248
     12094.87       0.5303845
     12095.85       0.5303442
     12096.82       0.5303046
     12097.81       0.5302637
      12098.8       0.5302234
     12099.77       0.5301835
     12100.75       0.5301768
     12101.73       0.5301805
     12102.72       0.5301842
      12103.7       0.5301807
     12104.68       0.5301666
     12105.67       0.5301527
     12106.65       0.5301386
     12107.62       0.5301248
     12108.62       0.5301105
      12109.6       0.5300964
     12110.57       0.5300568
     12111.56       0.5299987
     12112.54       0.5299406
     12113.53        0.529881
      12114.5       0.5298169
     12115.48       0.5297521
     12116.46        0.529687
     12117.45       0.5296219
     12118.43       0.5295569
     12119.42       0.5294919
      12120.4       0.5294267
     12121.39       0.5293619
     12122.37       0.5292968
     12123.36       0.5292314
     12124.34         0.52916
     12125.31       0.5290896
      12126.3       0.5290183
     12127.29       0.5289466
     12128.27       0.5288752
     12129.26       0.5288038
     12130.23       0.5287333
     12131.23       0.5286606
     12132.21       0.5285891
     12133.19       0.5285188
     12134.17       0.5284347
     12135.16       0.5283492
     12136.14       0.5282634
     12137.13       0.5281775
     12138.12       0.5280923
      12139.1       0.5280063
     12140.08       0.5279251
     12141.06        0.527883
     12142.06       0.5278403
     12143.03       0.5277991
     12144.02       0.5277656
     12145.01       0.5277357
     12145.99       0.5277057
     12146.98       0.5276757
     12147.96       0.5276462
     12148.94       0.5276158
     12149.93       0.5275857
     12150.92        0.527515
      12151.9        0.527441
     12152.89       0.5273671
     12153.88       0.5272877
     12154.87       0.5272042
     12155.85       0.5271205
     12156.84       0.5270372
     12157.83       0.5269536
      12158.8       0.5268711
     12159.79       0.5267875
     12160.78       0.5267038
     12161.77       0.5266203
     12162.74       0.5265377
     12163.74       0.5264606
     12164.73       0.5263956
     12165.71       0.5263314
      12166.7       0.5262662
     12167.68        0.526201
     12168.67       0.5261361
     12169.66       0.5260708
     12170.65       0.5260055
     12171.64       0.5259404
     12172.63       0.5258753
      12173.6       0.5258142
     12174.61       0.5257598
      12175.6       0.5257062
     12176.57       0.5256533
     12177.56       0.5255997
     12178.55       0.5255459
     12179.54       0.5254925
     12180.53       0.5254622
     12181.51       0.5254525
      12182.5       0.5254424
     12183.49        0.525435
     12184.48       0.5254402
     12185.47       0.5254457
     12186.46       0.5254508
     12187.45       0.5254558
     12188.44       0.5254612
     12189.43       0.5254664
     12190.42       0.5254532
     12191.39       0.5254151
     12192.38       0.5253766
     12193.38       0.5253389
     12194.37       0.5253183
     12195.36       0.5252973
     12196.35       0.5252767
     12197.34       0.5252561
     12198.33       0.5252356
     12199.31       0.5252151
      12200.3       0.5251929
     12201.29       0.5251676
     12202.28        0.525142
     12203.27       0.5251166
     12204.26       0.5251067
     12205.26       0.5250983
     12206.25       0.5250895
     12207.24        0.525081
     12208.23       0.5250723
     12209.22       0.5250637
      12210.2       0.5250641
     12211.19       0.5250991
     12212.19       0.5251344
     12213.18       0.5251696
     12214.16       0.5252199
     12215.15       0.5252743
     12216.14       0.5253284
     12217.13       0.5253825
     12218.13       0.5254369
     12219.12       0.5254911
     12220.11       0.5255403
     12221.11       0.5255507
      12222.1       0.5255613
     12223.09       0.5255715
     12224.09       0.5255978
     12225.07       0.5256289
     12226.06       0.5256604
     12227.05        0.525692
     12228.05       0.5257234
     12229.04       0.5257549
     12230.03       0.5257865
     12231.03       0.5258182
     12232.02       0.5258496
       12233.       0.5258807
     12233.99       0.5259183
     12234.99       0.5259593
     12235.98       0.5260001
     12236.98        0.526041
     12237.97       0.5260819
     12238.97       0.5261228
     12239.96       0.5261636
     12240.95       0.5262046
     12241.95       0.5262456
     12242.94       0.5262864
     12243.92       0.5263399
     12244.92       0.5264037
     12245.92       0.5264675
     12246.91       0.5265312
     12247.89        0.526594
     12248.89       0.5266578
     12249.88       0.5267216
     12250.88       0.5268242
     12251.87       0.5269321
     12252.87       0.5270398
     12253.86       0.5271552
     12254.86       0.5272776
     12255.86          0.5274
     12256.85       0.5275222
     12257.85       0.5276447
     12258.83       0.5277655
     12259.83       0.5278879
     12260.82       0.5279739
     12261.82       0.5280524
     12262.81       0.5281308
     12263.81       0.5282166
     12264.81       0.5283113
      12265.8       0.5284063
     12266.79       0.5284997
     12267.78       0.5285946
     12268.78       0.5286894
     12269.78       0.5287844
     12270.77       0.5288793
     12271.77        0.528974
     12272.77        0.529069
     12273.77       0.5291666
     12274.76       0.5292684
     12275.76       0.5293704
     12276.74       0.5294709
     12277.74       0.5295728
     12278.74       0.5296748
     12279.74       0.5297768
     12280.73       0.5298786
     12281.72       0.5299792
     12282.72       0.5300813
     12283.71       0.5301865
     12284.71       0.5302981
     12285.71       0.5304093
     12286.71       0.5305209
     12287.71       0.5306323
     12288.71       0.5307438
      12289.7       0.5308554
      12290.7       0.5309982
      12291.7       0.5311541
     12292.69       0.5313082
     12293.69       0.5314614
     12294.68       0.5316084
     12295.68       0.5317553
     12296.68       0.5319022
     12297.68       0.5320492
     12298.68       0.5321962
     12299.67       0.5323414
     12300.67       0.5324588
     12301.67       0.5325614
     12302.67       0.5326638
     12303.67       0.5327671
     12304.66       0.5328724
     12305.66       0.5329778
     12306.66       0.5330831
     12307.66       0.5331885
     12308.66        0.533294
     12309.66       0.5333991
     12310.65       0.5335034
     12311.65       0.5336089
     12312.65       0.5337142
     12313.65       0.5338181
     12314.65       0.5339183
     12315.64       0.5340171
     12316.64       0.5341174
     12317.64       0.5342177
     12318.64       0.5343181
     12319.64       0.5344182
     12320.64       0.5345185
     12321.64       0.5346189
     12322.65        0.534719
     12323.65       0.5348183
     12324.65       0.5349153
     12325.64       0.5350107
     12326.64       0.5351076
     12327.64       0.5352045
     12328.64       0.5353011
     12329.64       0.5353981
     12330.64       0.5355241
     12331.65       0.5356659
     12332.65       0.5358077
     12333.64       0.5359409
     12334.64       0.5360574
     12335.64       0.5361744
     12336.64       0.5362909
     12337.65       0.5364075
     12338.65       0.5365242
     12339.65       0.5366408
     12340.65       0.5367284
     12341.66          0.5368
     12342.66       0.5368716
     12343.66       0.5369405
     12344.65       0.5370024
     12345.65       0.5370649
     12346.66       0.5371274
     12347.66         0.53719
     12348.65       0.5372516
     12349.65       0.5373141
     12350.66       0.5373769
     12351.66       0.5374395
     12352.66       0.5375021
     12353.67       0.5375607
     12354.67       0.5376087
     12355.68        0.537657
     12356.68       0.5377051
     12357.68       0.5377532
     12358.69       0.5378015
     12359.68       0.5378489
     12360.68       0.5378972
     12361.69       0.5379456
     12362.69       0.5379936
      12363.7       0.5380341
      12364.7        0.538057
     12365.71       0.5380796
     12366.71       0.5381024
      12367.7       0.5381249
     12368.71       0.5381477
     12369.71       0.5381703
     12370.72       0.5382254
     12371.72       0.5382937
     12372.73       0.5383618
     12373.73       0.5384257
     12374.74       0.5384818
     12375.74       0.5385376
     12376.75       0.5385936
     12377.75       0.5386494
     12378.75       0.5387048
     12379.75       0.5387607
     12380.76       0.5387823
     12381.76       0.5387933
     12382.76       0.5388036
     12383.76       0.5388043
     12384.78       0.5387886
     12385.77       0.5387734
     12386.78        0.538758
     12387.79       0.5387422
     12388.79       0.5387269
      12389.8       0.5387113
     12390.81       0.5386958
     12391.81       0.5386803
     12392.82       0.5386646
     12393.81       0.5386452
     12394.82       0.5386191
     12395.84        0.538593
     12396.83       0.5385672
     12397.84       0.5385415
     12398.85       0.5385153
     12399.86       0.5384896
     12400.85       0.5384694
     12401.86         0.53845
     12402.87       0.5384306
     12403.87        0.538402
     12404.88       0.5383632
     12405.89       0.5383243
      12406.9       0.5382856
     12407.91       0.5382468
     12408.91       0.5382079
     12409.92       0.5381691
     12410.93       0.5381724
     12411.93       0.5381789
     12412.93       0.5381855
     12413.94       0.5381855
     12414.95       0.5381799
     12415.96       0.5381744
     12416.96       0.5381688
     12417.96       0.5381632
     12418.99       0.5381574
     12419.98       0.5381519
     12420.99       0.5381016
       12422.       0.5380505
     12423.01       0.5379993
     12424.02       0.5379466
     12425.03       0.5378927
     12426.04       0.5378388
     12427.05       0.5377848
     12428.04       0.5377318
     12429.05       0.5376779
     12430.08       0.5376233
     12431.07       0.5375699
     12432.08       0.5375162
     12433.09       0.5374621
      12434.1       0.5373983
      12435.1       0.5373315
     12436.11       0.5372633
     12437.12       0.5371953
     12438.13       0.5371274
     12439.14       0.5370593
     12440.15       0.5369912
     12441.16       0.5369233
     12442.18       0.5368552
     12443.19       0.5367871
      12444.2       0.5367242
     12445.21       0.5366625
     12446.21       0.5366015
     12447.22         0.53654
     12448.23       0.5364783
     12449.24       0.5364166
     12450.25       0.5363663
     12451.25         0.53635
     12452.27       0.5363336
     12453.29       0.5363173
     12454.29       0.5363055
      12455.3       0.5362942
     12456.31        0.536283
     12457.32       0.5362718
     12458.33       0.5362606
     12459.35       0.5362492
     12460.36        0.536222
     12461.36       0.5361663
     12462.37       0.5361093
      12463.4       0.5360519
     12464.39       0.5359985
     12465.41       0.5359444
     12466.42       0.5358905
     12467.43       0.5358362
     12468.45        0.535782
     12469.45       0.5357286
     12470.46       0.5356745
     12471.47       0.5356202
     12472.49       0.5355662
      12473.5       0.5355126
     12474.51       0.5354654
     12475.53       0.5354183
     12476.54       0.5353712
     12477.55       0.5353241
     12478.57       0.5352771
     12479.58         0.53523
     12480.58       0.5351835
     12481.59       0.5351364
     12482.61       0.5350894
     12483.62       0.5350444
     12484.62       0.5350084
     12485.65       0.5349714
     12486.67       0.5349349
     12487.67       0.5348991
     12488.68       0.5348625
      12489.7       0.5348261
     12490.71       0.5348213
     12491.73       0.5348303
     12492.74        0.534839
     12493.76       0.5348552
     12494.77       0.5348861
     12495.77       0.5349164
      12496.8       0.5349477
     12497.82       0.5349784
     12498.82       0.5350088
     12499.83       0.5350395
     12500.85       0.5350219
     12501.87       0.5349953
     12502.88       0.5349684
     12503.88        0.534952
      12504.9       0.5349476
     12505.92       0.5349432
     12506.93       0.5349387
     12507.95       0.5349342
     12508.96       0.5349299
     12509.98        0.534925
       12511.       0.5349206
     12512.01        0.534916
     12513.03       0.5349115
     12514.03       0.5349134
     12515.05       0.5349196
     12516.07       0.5349258
     12517.08       0.5349318
      12518.1       0.5349378
      12519.1       0.5349438
     12520.14       0.5349498
     12521.15        0.534956
     12522.16        0.534962
     12523.17       0.5349681
     12524.19       0.5349908
     12525.21       0.5350192
     12526.23       0.5350475
     12527.25       0.5350757
     12528.26       0.5351039
     12529.28       0.5351324
     12530.29       0.5351729
     12531.32       0.5352476
     12532.33       0.5353214
     12533.34       0.5353942
     12534.36        0.535477
     12535.38       0.5355605
     12536.39       0.5356438
      12537.4       0.5357265
     12538.42       0.5358099
     12539.44       0.5358937
     12540.46       0.5359568
     12541.47       0.5359947
     12542.49        0.536033
     12543.51       0.5360734
     12544.53       0.5361399
     12545.55       0.5362066
     12546.57       0.5362735
     12547.59       0.5363404
      12548.6        0.536406
     12549.62        0.536473
     12550.64       0.5365397
     12551.66       0.5366064
     12552.67       0.5366731
      12553.7       0.5367438
     12554.71       0.5368254
     12555.74       0.5369068
     12556.74       0.5369872
     12557.76       0.5370685
     12558.78         0.53715
      12559.8       0.5372316
     12560.82       0.5373501
     12561.84       0.5374776
     12562.86       0.5376047
     12563.87       0.5377355
     12564.91       0.5378768
     12565.93       0.5380163
     12566.95       0.5381558
     12567.96       0.5382932
     12568.98       0.5384329
       12570.       0.5385725
     12571.02        0.538666
     12572.03       0.5387587
     12573.05       0.5388522
     12574.07       0.5389503
     12575.09       0.5390514
     12576.11       0.5391526
     12577.13       0.5392536
     12578.16       0.5393547
     12579.18        0.539456
      12580.2        0.539557
     12581.22       0.5396581
     12582.25       0.5397593
     12583.25       0.5398592
     12584.28       0.5399659
      12585.3       0.5400738
     12586.32       0.5401818
     12587.34       0.5402899
     12588.37       0.5403981
     12589.39       0.5405058
     12590.41       0.5406139
     12591.42       0.5407208
     12592.44       0.5408288
     12593.47       0.5409366
     12594.49       0.5410373
     12595.51       0.5411379
     12596.54        0.541239
     12597.56       0.5413396
     12598.58       0.5414401
     12599.61       0.5415409
     12600.63       0.5416688
     12601.64       0.5418113
     12602.67        0.541956
     12603.69          0.5421
     12604.71       0.5422414
     12605.74       0.5423824
     12606.75        0.542522
     12607.77       0.5426634
      12608.8       0.5428045
     12609.82       0.5429461
     12610.85       0.5430492
     12611.87       0.5431443
      12612.9       0.5432392
     12613.92       0.5433452
     12614.95       0.5434639
     12615.97       0.5435827
       12617.       0.5437014
     12618.01       0.5438184
     12619.03       0.5439371
     12620.06       0.5440559
     12621.08       0.5441747
     12622.11       0.5442935
     12623.13       0.5444123
     12624.16       0.5445194
     12625.17       0.5446198
      12626.2       0.5447217
     12627.22       0.5448235
     12628.25       0.5449254
     12629.28       0.5450273
      12630.3       0.5451291
     12631.33       0.5452309
     12632.35       0.5453327
     12633.38       0.5454347
     12634.41       0.5455193
     12635.43       0.5456026
     12636.45       0.5456848
     12637.47       0.5457681
      12638.5       0.5458513
     12639.53       0.5459349
     12640.55       0.5460434
     12641.57       0.5461718
     12642.59       0.5463021
     12643.62         0.54643
     12644.65       0.5465469
     12645.68       0.5466639
      12646.7       0.5467808
     12647.73       0.5468977
     12648.76       0.5470145
     12649.79       0.5471317
     12650.81       0.5472115
     12651.83       0.5472808
     12652.86       0.5473508
     12653.88       0.5474122
     12654.91       0.5474608
     12655.94       0.5475094
     12656.97        0.547558
       12658.       0.5476068
     12659.03       0.5476552
     12660.04       0.5477034
     12661.07       0.5477521
      12662.1       0.5478005
     12663.13       0.5478491
     12664.16       0.5478911
     12665.19       0.5479299
     12666.21       0.5479683
     12667.24       0.5480068
     12668.27       0.5480456
      12669.3       0.5480841
     12670.33       0.5481228
     12671.35       0.5481609
     12672.38       0.5481994
     12673.41       0.5482382
     12674.44       0.5482554
     12675.45       0.5482714
     12676.48       0.5482875
     12677.51       0.5483034
     12678.54       0.5483196
     12679.57       0.5483357
      12680.6       0.5483795
     12681.63       0.5484424
     12682.66       0.5485057
     12683.69       0.5485633
     12684.72        0.548601
     12685.75       0.5486389
     12686.77       0.5486763
      12687.8       0.5487142
     12688.83       0.5487519
     12689.86       0.5487898
      12690.9       0.5487868
     12691.93       0.5487775
     12692.96       0.5487683
     12693.99       0.5487562
     12695.01       0.5487418
     12696.04       0.5487271
     12697.07       0.5487124
      12698.1       0.5486978
     12699.13        0.548683
     12700.17       0.5486681
      12701.2       0.5486535
     12702.23       0.5486391
     12703.26       0.5486241
     12704.29       0.5485951
     12705.31        0.548563
     12706.34       0.5485303
     12707.38       0.5484979
     12708.41       0.5484651
     12709.44       0.5484325
     12710.46       0.5484003
     12711.49       0.5483674
     12712.53       0.5483348
     12713.56       0.5483013
     12714.59       0.5482559
     12715.62       0.5482108
     12716.66       0.5481656
     12717.69       0.5481202
     12718.72       0.5480749
     12719.76       0.5480297
     12720.79       0.5480203
     12721.81       0.5480224
     12722.84       0.5480239
     12723.88       0.5480173
     12724.91       0.5479968
     12725.95       0.5479763
     12726.98       0.5479559
     12728.01       0.5479353
     12729.03       0.5479153
     12730.07       0.5478916
      12731.1        0.547824
     12732.14       0.5477564
     12733.17       0.5476885
     12734.21        0.547621
     12735.24       0.5475531
     12736.28       0.5474851
     12737.31       0.5474173
     12738.35       0.5473493
     12739.38       0.5472816
      12740.4       0.5472147
     12741.44        0.547147
     12742.47       0.5470787
     12743.51       0.5470106
     12744.54       0.5469331
     12745.56       0.5468566
      12746.6       0.5467786
     12747.65       0.5467001
     12748.67       0.5466233
     12749.71       0.5465457
     12750.74        0.546468
     12751.78       0.5463902
     12752.82       0.5463125
     12753.85       0.5462353
     12754.89       0.5461597
     12755.92       0.5460836
     12756.95       0.5460086
     12757.98       0.5459325
     12759.02       0.5458567
     12760.06       0.5457804
     12761.09       0.5457045
     12762.13       0.5456284
     12763.17       0.5455524
     12764.19       0.5454787
     12765.23       0.5454039
     12766.26       0.5453297
      12767.3       0.5452552
     12768.34       0.5451808
     12769.38       0.5451064
     12770.41       0.5450507
     12771.45       0.5450231
     12772.49       0.5449957
     12773.53       0.5449683
     12774.57       0.5449414
     12775.59       0.5449148
     12776.63       0.5448878
     12777.67       0.5448613
      12778.7       0.5448339
     12779.74       0.5448072
     12780.77        0.544746
     12781.82        0.544671
     12782.86        0.544597
     12783.88       0.5445275
     12784.92       0.5444628
     12785.96       0.5443983
       12787.       0.5443335
     12788.04        0.544269
     12789.08       0.5442044
     12790.12       0.5441396
     12791.14       0.5440758
     12792.18       0.5440114
     12793.23       0.5439455
     12794.26        0.543889
      12795.3       0.5438346
     12796.34       0.5437801
     12797.38       0.5437256
     12798.42       0.5436712
     12799.44       0.5436173
     12800.48       0.5435584
     12801.52       0.5434946
     12802.56       0.5434307
      12803.6        0.543368
     12804.64       0.5433176
     12805.68       0.5432671
     12806.73       0.5432166
     12807.77       0.5431659
     12808.81       0.5431156
     12809.85       0.5430651
     12810.87       0.5430546
     12811.92       0.5430512
     12812.96       0.5430475
       12814.       0.5430509
     12815.02       0.5430622
     12816.07       0.5430732
     12817.12       0.5430846
     12818.15       0.5430956
     12819.19       0.5431068
     12820.23       0.5431077
     12821.27       0.5430719
     12822.31       0.5430362
     12823.36       0.5430005
      12824.4       0.5429798
     12825.44       0.5429618
     12826.47       0.5429443
     12827.51       0.5429263
     12828.57       0.5429081
     12829.59       0.5428904
     12830.64       0.5428725
     12831.68       0.5428546
     12832.72       0.5428368
     12833.77       0.5428225
     12834.79       0.5428203
     12835.84       0.5428179
     12836.88       0.5428154
     12837.92       0.5428132
     12838.97       0.5428107
     12840.01       0.5428084
     12841.05        0.542806
      12842.1       0.5428037
     12843.14       0.5428013
     12844.18        0.542805
     12845.21       0.5428119
     12846.26       0.5428188
      12847.3       0.5428261
     12848.34       0.5428333
     12849.39       0.5428402
     12850.42        0.542866
     12851.46       0.5429201
     12852.52       0.5429748
     12853.55       0.5430291
     12854.59       0.5431081
     12855.64       0.5431869
     12856.68       0.5432659
     12857.73       0.5433449
     12858.77       0.5434237
     12859.82       0.5435026
     12860.86       0.5435429
     12861.89       0.5435743
     12862.94       0.5436062
       12864.       0.5436404
     12865.03       0.5436758
     12866.07       0.5437114
     12867.12       0.5437472
     12868.17       0.5437831
      12869.2       0.5438184
     12870.24       0.5438542
     12871.29       0.5438901
     12872.33       0.5439259
     12873.38       0.5439618
     12874.43       0.5440089
     12875.47        0.544058
     12876.52       0.5441068
     12877.56       0.5441559
     12878.61       0.5442048
     12879.66       0.5442539
     12880.69       0.5443022
     12881.74       0.5443512
     12882.78       0.5444002
     12883.83       0.5444527
     12884.88       0.5445133
     12885.91       0.5445731
     12886.97       0.5446346
     12888.02       0.5446954
     12889.05        0.544755
      12890.1       0.5448202
     12891.14       0.5449283
     12892.19       0.5450364
     12893.24       0.5451443
     12894.29        0.545262
     12895.33       0.5453836
     12896.37       0.5455034
     12897.42       0.5456252
     12898.48       0.5457483
     12899.51       0.5458683
     12900.56       0.5459644
     12901.61       0.5460388
     12902.66       0.5461128
     12903.71       0.5461863
     12904.74       0.5462551
     12905.79       0.5463246
     12906.84       0.5463944
     12907.89        0.546464
     12908.93       0.5465338
     12909.98       0.5466034
     12911.03       0.5466729
     12912.08       0.5467426
     12913.13       0.5468122
     12914.18       0.5468832
     12915.23        0.546955
     12916.26        0.547026
     12917.31        0.547098
     12918.36       0.5471697
     12919.41       0.5472417
     12920.45       0.5473124
     12921.51       0.5473853
     12922.56       0.5474571
     12923.61       0.5475284
     12924.65        0.547592
      12925.7       0.5476567
     12926.75       0.5477213
      12927.8       0.5477858
     12928.85       0.5478506
      12929.9       0.5479151
     12930.95       0.5480229
     12931.99        0.548134
     12933.05       0.5482478
      12934.1        0.548351
     12935.14       0.5484455
     12936.19       0.5485411
     12937.24       0.5486366
     12938.29       0.5487323
     12939.34       0.5488276
     12940.38       0.5489048
     12941.43       0.5489526
     12942.48       0.5490005
     12943.54       0.5490485
     12944.59       0.5490912
     12945.64       0.5491337
     12946.69       0.5491762
     12947.74       0.5492189
     12948.79       0.5492612
     12949.85       0.5493038
      12950.9       0.5493464
     12951.94       0.5493885
     12952.99       0.5494311
     12954.04       0.5494708
     12955.09       0.5495072
     12956.13       0.5495434
      12957.2       0.5495802
     12958.25       0.5496168
     12959.29       0.5496528
     12960.34       0.5496892
      12961.4       0.5497257
     12962.45       0.5497621
      12963.5       0.5497988
     12964.56       0.5498123
     12965.61       0.5498247
     12966.66       0.5498374
      12967.7       0.5498498
     12968.77       0.5498624
     12969.83        0.549875
     12970.86       0.5498877
     12971.92       0.5498999
     12972.97       0.5499126
     12974.03       0.5499104
     12975.08       0.5498902
     12976.12       0.5498706
     12977.17       0.5498506
     12978.23       0.5498307
     12979.28       0.5498106
     12980.34       0.5498061
     12981.39       0.5498338
     12982.45       0.5498621
      12983.5         0.54989
     12984.56       0.5499067
     12985.61       0.5499228
     12986.65       0.5499387
     12987.71       0.5499551
     12988.76        0.549971
     12989.82       0.5499874
     12990.87       0.5499638
     12991.93       0.5499317
     12992.99          0.5499
     12994.04       0.5498606
     12995.08       0.5498133
     12996.14       0.5497653
      12997.2       0.5497175
     12998.25       0.5496696
     12999.31       0.5496218
     13000.36       0.5495806
     13001.42       0.5495524
     13002.48       0.5495241
     13003.53       0.5494961
     13004.59       0.5494429
     13005.65       0.5493892
     13006.69       0.5493361
     13007.75       0.5492824
      13008.8       0.5492287
     13009.86       0.5491751
      13010.9       0.5491219
     13011.96       0.5490683
     13013.02       0.5490144
     13014.07       0.5489484
     13015.13       0.5488695
     13016.19       0.5487903
     13017.25       0.5487114
      13018.3       0.5486324
     13019.36       0.5485532
     13020.42       0.5484933
     13021.48       0.5484622
     13022.52       0.5484314
     13023.58          0.5484
     13024.64       0.5483544
      13025.7       0.5483088
     13026.75       0.5482631
     13027.81       0.5482175
     13028.87       0.5481718
     13029.93       0.5481261
     13030.97       0.5480369
     13032.03       0.5479432
     13033.09       0.5478495
     13034.15       0.5477473
     13035.21       0.5476379
     13036.27       0.5475286
     13037.33       0.5474192
     13038.39       0.5473099
     13039.45       0.5472007
     13040.51       0.5470912
     13041.55       0.5469833
     13042.61        0.546874
     13043.67       0.5467632
     13044.73       0.5466415
     13045.79       0.5465191
     13046.84       0.5463986
      13047.9       0.5462766
     13048.96       0.5461545
     13050.02       0.5460326
     13051.08       0.5459102
     13052.14        0.545788
      13053.2       0.5456658
     13054.26       0.5455362
     13055.32       0.5454024
     13056.38       0.5452686
     13057.44       0.5451349
     13058.49       0.5450029
     13059.55       0.5448691
     13060.61       0.5447353
     13061.67       0.5446015
     13062.73       0.5444674
     13063.79       0.5443311
     13064.86       0.5441846
      13065.9         0.54404
     13066.96       0.5438936
     13068.03       0.5437469
     13069.09       0.5436004
     13070.15       0.5434605
     13071.21       0.5433615
     13072.27       0.5432627
     13073.34       0.5431634
      13074.4       0.5430642
     13075.46       0.5429645
     13076.52       0.5428648
     13077.57       0.5427663
     13078.63       0.5426666
      13079.7       0.5425668
     13080.76        0.542433
     13081.82       0.5422855
     13082.87       0.5421401
     13083.93       0.5419929
       13085.       0.5418472
     13086.06        0.541701
     13087.12       0.5415549
     13088.19       0.5414089
     13089.25       0.5412627
     13090.31       0.5411165
     13091.38       0.5409704
     13092.44       0.5408244
     13093.49       0.5406801
     13094.55       0.5405455
     13095.62       0.5404118
     13096.68       0.5402781
     13097.75       0.5401444
     13098.81       0.5400107
     13099.87       0.5398772
     13100.94       0.5397434
     13101.99       0.5396115
     13103.05       0.5394777
     13104.12       0.5393466
     13105.18       0.5392184
     13106.25       0.5390899
     13107.31       0.5389616
     13108.38       0.5388332
     13109.44       0.5387047
     13110.51       0.5385764
     13111.57        0.538448
     13112.64       0.5383193
     13113.69       0.5381947
     13114.75        0.538088
     13115.82        0.537981
     13116.89       0.5378739
     13117.94       0.5377685
       13119.       0.5376616
     13120.07       0.5375578
     13121.15       0.5374974
      13122.2       0.5374385
     13123.27       0.5373787
     13124.33        0.537344
      13125.4       0.5373207
     13126.47       0.5372971
     13127.53       0.5372733
      13128.6       0.5372498
     13129.65       0.5372263
     13130.72       0.5371708
     13131.79       0.5370998
     13132.85       0.5370287
     13133.92       0.5369599
     13134.99       0.5368947
     13136.05       0.5368297
     13137.12       0.5367648
     13138.17       0.5367007
     13139.24       0.5366357
     13140.31       0.5365707
     13141.38       0.5365054
     13142.45       0.5364406
     13143.51       0.5363756
     13144.58       0.5363339
     13145.65       0.5362938
     13146.72       0.5362542
     13147.79       0.5362146
     13148.85       0.5361746
     13149.91       0.5361354
     13150.98       0.5360954
     13152.04       0.5360554
     13153.11       0.5360157
     13154.17        0.535989
     13155.24       0.5359735
     13156.32       0.5359575
     13157.37       0.5359419
     13158.44       0.5359262
     13159.51       0.5359104
     13160.58       0.5359203
     13161.65       0.5359521
     13162.72       0.5359836
     13163.79       0.5360205
     13164.86       0.5360833
     13165.92       0.5361451
     13166.98        0.536208
     13168.05       0.5362707
     13169.12       0.5363334
     13170.19       0.5363877
     13171.26       0.5364032
     13172.33       0.5364184
     13173.41       0.5364341
     13174.46       0.5364746
     13175.53        0.536522
      13176.6       0.5365694
     13177.67       0.5366167
     13178.74       0.5366639
     13179.81       0.5367112
     13180.88       0.5367585
     13181.96       0.5368059
     13183.03        0.536853
      13184.1       0.5369117
     13185.16       0.5369821
     13186.23       0.5370535
      13187.3       0.5371249
     13188.37       0.5371966
     13189.44       0.5372677
      13190.5       0.5373384
     13191.57       0.5374102
     13192.66       0.5374826
     13193.71       0.5375561
     13194.79       0.5376576
     13195.86       0.5377592
     13196.93       0.5378613
       13198.       0.5379629
     13199.07       0.5380648
     13200.15       0.5381649
     13201.22       0.5382546
     13202.28       0.5383431
     13203.35        0.538433
     13204.44        0.538559
      13205.5       0.5386922
     13206.57       0.5388276
     13207.64       0.5389625
     13208.71       0.5390977
     13209.77       0.5392312
     13210.85        0.539404
     13211.92       0.5395868
     13212.99         0.53977
     13214.07       0.5399558
     13215.14       0.5401459
     13216.21       0.5403358
     13217.29        0.540526
     13218.36       0.5407161
     13219.44        0.540906
     13220.51       0.5410734
     13221.57       0.5412139
     13222.65       0.5413564
     13223.72       0.5415012
     13224.79        0.541669
     13225.87       0.5418366
     13226.93       0.5420021
     13228.02       0.5421722
     13229.09         0.54234
     13230.15       0.5425056
     13231.23       0.5426733
      13232.3       0.5428411
     13233.38       0.5430091
     13234.45       0.5431893
     13235.53       0.5433731
      13236.6       0.5435569
     13237.67       0.5437381
     13238.74       0.5439218
     13239.83       0.5441082
     13240.89       0.5442896
     13241.97       0.5444734
     13243.04       0.5446573
     13244.12       0.5448465
      13245.2       0.5450417
     13246.26       0.5452344
     13247.33       0.5454298
     13248.41       0.5456253
     13249.49       0.5458205
     13250.56       0.5460159
     13251.64       0.5462112
     13252.72       0.5464067
     13253.79       0.5466034
     13254.87       0.5468057
     13255.95       0.5470082
     13257.02       0.5472108
     13258.09       0.5474102
     13259.16       0.5476128
     13260.24       0.5478154
     13261.32       0.5480179
     13262.38       0.5482175
     13263.46       0.5484203
     13264.55       0.5486383
     13265.62       0.5488527
     13266.69       0.5490701
     13267.77       0.5492876
     13268.85        0.549505
     13269.93       0.5497227
       13271.       0.5499856
     13272.08       0.5502523
     13273.16       0.5505186
     13274.23       0.5507695
      13275.3       0.5510145
      13276.4       0.5512626
     13277.46       0.5515044
     13278.54       0.5517496
     13279.62       0.5519944
      13280.7       0.5522078
     13281.78       0.5524041
     13282.84       0.5525978
     13283.92       0.5527923
       13285.        0.552982
     13286.08       0.5531721
     13287.16       0.5533621
     13288.24        0.553552
     13289.32       0.5537422
      13290.4       0.5539322
     13291.48       0.5541223
     13292.56       0.5543122
     13293.62       0.5544999
      13294.7       0.5546695
     13295.78       0.5548393
     13296.87        0.555009
     13297.95       0.5551786
     13299.01       0.5553461
     13300.11       0.5555182
     13301.19       0.5556877
     13302.25       0.5558553
     13303.33        0.556025
     13304.42       0.5561739
      13305.5       0.5563149
     13306.58       0.5564559
     13307.66       0.5565965
     13308.74       0.5567375
     13309.82       0.5568786
     13310.89       0.5570176
     13311.98       0.5571603
     13313.07       0.5573015
     13314.13        0.557426
     13315.21       0.5575349
      13316.3       0.5576435
     13317.38       0.5577521
     13318.46       0.5578613
     13319.53       0.5579689
     13320.61        0.558106
     13321.69       0.5582646
     13322.77        0.558423
     13323.86       0.5585757
     13324.94       0.5587031
     13326.02         0.55883
     13327.11       0.5589578
     13328.19       0.5590851
     13329.27       0.5592125
     13330.34       0.5593224
     13331.42       0.5594001
     13332.51       0.5594777
     13333.59       0.5595554
     13334.67       0.5595903
     13335.76       0.5596225
     13336.84       0.5596549
     13337.92       0.5596874
     13338.99       0.5597193
     13340.08       0.5597517
     13341.16        0.559784
     13342.24       0.5598166
     13343.33       0.5598488
     13344.41        0.559846
      13345.5       0.5598287
     13346.58       0.5598112
     13347.67       0.5597939
     13348.75       0.5597763
     13349.83       0.5597591
      13350.9       0.5597418
     13351.99       0.5597242
     13353.07       0.5597067
     13354.16         0.55967
     13355.23        0.559612
     13356.31       0.5595533
      13357.4       0.5594945
     13358.49       0.5594356
     13359.57       0.5593766
     13360.66       0.5593178
     13361.74       0.5592591
     13362.83       0.5592002
     13363.91       0.5591309
       13365.       0.5590295
     13366.08        0.558928
     13367.16       0.5588279
     13368.24       0.5587267
     13369.33       0.5586247
     13370.42       0.5585235
      13371.5        0.558422
     13372.59       0.5583203
     13373.67       0.5582179
     13374.76       0.5580735
     13375.83       0.5579309
     13376.92       0.5577861
     13378.01       0.5576416
     13379.09        0.557497
     13380.18       0.5573606
     13381.27       0.5572656
     13382.36       0.5571709
     13383.43       0.5570772
     13384.53       0.5569469
     13385.62       0.5568098
     13386.69       0.5566741
     13387.78       0.5565367
     13388.87       0.5563995
     13389.95       0.5562619
     13391.04       0.5560768
     13392.12       0.5558921
      13393.2       0.5557048
     13394.29       0.5554986
     13395.38       0.5552785
     13396.47       0.5550585
     13397.56       0.5548383
     13398.65       0.5546181
     13399.73       0.5543982
     13400.82       0.5541534
     13401.91       0.5539005
       13403.       0.5536473
     13404.08       0.5533882
     13405.16       0.5531099
     13406.25       0.5528315
     13407.34        0.552553
     13408.43       0.5522748
     13409.52       0.5519962
     13410.61       0.5517181
     13411.69       0.5514432
     13412.78        0.551165
     13413.87       0.5508835
     13414.96       0.5505885
     13416.04       0.5502936
     13417.13       0.5499988
     13418.23       0.5497036
     13419.32       0.5494088
     13420.41       0.5491139
      13421.5       0.5488189
     13422.59        0.548524
     13423.66       0.5482329
     13424.75       0.5479246
     13425.84       0.5476163
     13426.94       0.5473079
     13428.03       0.5469996
      13429.1       0.5466954
     13430.19       0.5463871
     13431.29       0.5460785
     13432.38       0.5457702
     13433.47       0.5454618
     13434.56       0.5451453
     13435.65       0.5448272
     13436.74       0.5445088
     13437.83       0.5441906
     13438.93       0.5438722
       13440.       0.5435582
      13441.1       0.5432887
     13442.19       0.5430189
     13443.28       0.5427495
     13444.37       0.5424854
     13445.46       0.5422248
     13446.56       0.5419639
     13447.65        0.541703
     13448.73       0.5414456
     13449.82       0.5411846
     13450.91        0.540883
     13452.01       0.5405736
      13453.1       0.5402641
     13454.19       0.5399606
     13455.29       0.5396634
     13456.38       0.5393665
     13457.47       0.5390697
     13458.57       0.5387728
     13459.66       0.5384762
     13460.74       0.5381832
     13461.83       0.5378863
     13462.92       0.5375896
     13464.02       0.5372963
      13465.1       0.5370154
     13466.19       0.5367305
     13467.29       0.5364458
      13468.4       0.5361569
     13469.47       0.5358762
     13470.57       0.5355913
     13471.66       0.5353066
     13472.76       0.5350218
     13473.85       0.5347402
     13474.95       0.5344763
     13476.04       0.5342124
     13477.12       0.5339521
     13478.22       0.5336884
     13479.31       0.5334243
     13480.41       0.5331606
      13481.5       0.5328966
      13482.6       0.5326329
     13483.69       0.5323693
     13484.79       0.5321429
     13485.87       0.5319197
     13486.97       0.5316934
     13488.06       0.5314672
     13489.16        0.531241
     13490.25       0.5310145
     13491.35       0.5307883
     13492.45       0.5305623
     13493.54       0.5303359
     13494.64       0.5301484
     13495.74        0.529967
     13496.83       0.5297856
     13497.91       0.5296068
     13499.01       0.5294254
     13500.11       0.5292479
     13501.21       0.5291064
     13502.29       0.5289667
     13503.38       0.5288253
     13504.48       0.5287096
     13505.58       0.5286039
     13506.68       0.5284982
     13507.77       0.5283923
     13508.87       0.5282866
     13509.97       0.5281805
     13511.07       0.5280285
     13512.16       0.5278752
     13513.26       0.5277219
     13514.34       0.5275937
     13515.44       0.5274797
     13516.54       0.5273656
     13517.64       0.5272516
     13518.74       0.5271373
     13519.84       0.5270235
     13520.93       0.5269093
     13522.03       0.5267953
     13523.12       0.5266827
     13524.22       0.5265862
     13525.31       0.5265092
     13526.41        0.526432
     13527.51        0.526355
     13528.61        0.526278
     13529.71       0.5262011
     13530.81       0.5261241
     13531.91        0.526047
     13533.01       0.5259699
     13534.09       0.5259069
     13535.19        0.525866
     13536.29       0.5258247
     13537.39       0.5257835
     13538.49       0.5257425
     13539.58       0.5257023
     13540.68       0.5256612
     13541.79       0.5256194
     13542.88        0.525579
     13543.98        0.525551
     13545.08       0.5255631
     13546.18       0.5255749
     13547.28       0.5255867
     13548.38       0.5255985
     13549.48       0.5256102
     13550.58       0.5256221
     13551.67       0.5256335
     13552.77       0.5256456
     13553.89         0.52566
     13554.97       0.5256858
     13556.08       0.5257121
     13557.18       0.5257387
     13558.28       0.5257651
     13559.36        0.525791
     13560.47       0.5258172
     13561.57       0.5258436
     13562.67         0.52587
     13563.77        0.525897
     13564.87       0.5259346
     13565.98       0.5259719
     13567.08       0.5260096
     13568.18       0.5260471
     13569.28       0.5260844
     13570.39       0.5261387
     13571.47       0.5262226
     13572.58       0.5263076
     13573.68        0.526393
     13574.78       0.5264978
     13575.88       0.5266036
     13576.97       0.5267076
     13578.08       0.5268133
     13579.19       0.5269201
     13580.28       0.5270121
     13581.39       0.5270702
     13582.49       0.5271279
     13583.59       0.5271859
      13584.7       0.5272478
      13585.8       0.5273098
     13586.91       0.5273722
     13587.99       0.5274336
      13589.1       0.5274956
      13590.2       0.5275578
     13591.31         0.52762
     13592.41       0.5276822
     13593.52       0.5277442
     13594.62       0.5278026
     13595.72       0.5278594
     13596.81        0.527916
     13597.92        0.527973
     13599.02       0.5280302
     13600.13       0.5280746
     13601.23       0.5280216
     13602.34       0.5279685
     13603.44       0.5279155
     13604.55       0.5278498
     13605.65       0.5277799
     13606.76         0.52771
     13607.87       0.5276399
     13608.96        0.527571
     13610.06        0.527501
     13611.17       0.5274308
     13612.27       0.5273609
     13613.37       0.5272918
     13614.47       0.5272074
     13615.59       0.5271148
     13616.68       0.5270248
     13617.79       0.5269334
      13618.9       0.5268421
       13620.       0.5267508
     13621.11       0.5266593
     13622.22       0.5265678
     13623.32       0.5264764
     13624.43       0.5263695
     13625.52       0.5262554
     13626.63       0.5261399
     13627.75       0.5260225
     13628.84       0.5259084
     13629.95       0.5257928
     13631.06       0.5256771
     13632.17       0.5255613
     13633.27       0.5254456
     13634.37       0.5253055
     13635.47       0.5251449
     13636.58       0.5249846
     13637.69        0.524824
      13638.8       0.5246633
     13639.91        0.524503
     13641.01       0.5243425
     13642.12       0.5241821
     13643.23       0.5240217
     13644.34       0.5238364
     13645.43       0.5236337
     13646.54       0.5234279
     13647.65       0.5232223
     13648.76       0.5230167
     13649.87       0.5228114
     13650.96       0.5226498
     13652.07        0.522492
      13653.2       0.5223319
     13654.29       0.5221613
      13655.4       0.5219739
     13656.51       0.5217865
     13657.62       0.5215991
     13658.73        0.521412
     13659.84       0.5212244
     13660.95       0.5209967
     13662.06       0.5207621
     13663.15       0.5205308
     13664.26       0.5202743
     13665.39       0.5199901
     13666.49       0.5197137
      13667.6       0.5194335
     13668.71       0.5191532
     13669.82       0.5188733
     13670.91        0.518597
     13672.02       0.5183169
     13673.13       0.5180371
     13674.25       0.5177342
     13675.36       0.5174036
     13676.47       0.5170735
     13677.58       0.5167432
     13678.69       0.5164132
      13679.8       0.5160831
     13680.91       0.5157528
     13682.02       0.5154229
     13683.12       0.5150977
     13684.23       0.5147605
     13685.34       0.5144141
     13686.46       0.5140675
     13687.57       0.5137215
     13688.67       0.5133798
     13689.79       0.5130292
     13690.91       0.5126832
       13692.       0.5123418
     13693.12       0.5119963
     13694.23       0.5116493
     13695.34       0.5113001
     13696.45       0.5109518
     13697.57       0.5106031
     13698.68       0.5102545
     13699.79       0.5099064
     13700.89       0.5095628
     13702.02       0.5092099
     13703.13       0.5088621
     13704.23       0.5085186
     13705.34       0.5081707
     13706.46       0.5078232
     13707.57       0.5074752
     13708.67       0.5071323
     13709.78       0.5067849
      13710.9       0.5064377
     13712.01       0.5060903
     13713.13       0.5057428
     13714.24       0.5054157
     13715.35       0.5051134
     13716.47       0.5048112
     13717.58       0.5045092
      13718.7       0.5042071
     13719.81       0.5039051
     13720.91       0.5036073
     13722.03       0.5033056
     13723.14       0.5030039
     13724.26       0.5027264
     13725.37       0.5024782
     13726.49       0.5022299
      13727.6       0.5019817
     13728.72       0.5017338
     13729.82       0.5014889
     13730.93        0.501241
     13732.05       0.5009927
     13733.17        0.500745
     13734.28       0.5005111
      13735.4       0.5002925
     13736.51        0.500074
     13737.61       0.4998586
     13738.73       0.4996405
     13739.86       0.4994191
     13740.96       0.4992433
     13742.08       0.4990709
      13743.2       0.4988984
     13744.31       0.4987434
     13745.43       0.4986059
     13746.53       0.4984705
     13747.65       0.4983332
     13748.77       0.4981957
     13749.88       0.4980587
       13751.       0.4978805
     13752.12       0.4976977
     13753.23        0.497515
     13754.35       0.4973733
     13755.47       0.4972673
     13756.59       0.4971617
     13757.71       0.4970562
     13758.81       0.4969517
     13759.93        0.496846
     13761.04       0.4967402
     13762.16       0.4966345
     13763.26       0.4965303
      13764.4       0.4964668
     13765.52       0.4964388
     13766.62       0.4964108
     13767.74       0.4963824
     13768.86       0.4963538
     13769.98       0.4963254
     13771.09       0.4962968
     13772.21        0.496268
     13773.33       0.4962393
     13774.45       0.4962499
     13775.56       0.4962839
     13776.69        0.496319
     13777.81       0.4963534
     13778.91       0.4963871
     13780.03       0.4964217
     13781.15       0.4964559
     13782.27         0.49649
     13783.39       0.4965239
      13784.5       0.4965839
     13785.62       0.4966579
     13786.74       0.4967318
     13787.86       0.4968059
     13788.98       0.4968796
      13790.1       0.4969532
     13791.22       0.4970267
     13792.34       0.4971004
     13793.46       0.4971737
     13794.58       0.4972796
     13795.69       0.4973959
     13796.81        0.497514
     13797.93       0.4976317
     13799.05       0.4977495
     13800.17        0.497872
     13801.29       0.4980218
     13802.41       0.4981715
     13803.54        0.498321
     13804.64       0.4984628
     13805.76       0.4986048
     13806.88       0.4987467
     13808.01       0.4988886
     13809.13       0.4990304
     13810.25       0.4991719
     13811.37       0.4993135
      13812.5        0.499455
     13813.62       0.4995964
     13814.74       0.4996963
     13815.86       0.4997894
     13816.97       0.4998809
     13818.09       0.4999738
     13819.21       0.5000668
     13820.34       0.5001593
     13821.45       0.5002506
     13822.57       0.5003432
     13823.69       0.5004359
     13824.82       0.5004604
     13825.94       0.5004795
     13827.06        0.500498
     13828.19       0.5005168
     13829.31       0.5005358
     13830.43       0.5006402
     13831.56       0.5008823
     13832.68       0.5011244
     13833.79       0.5013626
     13834.91       0.5015078
     13836.04       0.5016533
     13837.16       0.5017986
     13838.29       0.5019438
     13839.41       0.5020893
     13840.53       0.5022348
     13841.66       0.5023803
     13842.77       0.5025237
     13843.89       0.5026566
     13845.02       0.5026723
     13846.14       0.5026878
     13847.27       0.5027033
     13848.39       0.5027188
     13849.52       0.5027343
     13850.63       0.5027754
     13851.77       0.5028378
     13852.89       0.5028996
     13854.02       0.5029311
     13855.13       0.5028476
     13856.26        0.502763
     13857.38       0.5026784
     13858.51       0.5025935
     13859.62       0.5025095
     13860.75       0.5023939
     13861.87       0.5022624
       13863.       0.5021307
     13864.12       0.5019587
     13865.25       0.5016915
     13866.38        0.501424
      13867.5       0.5011563
     13868.63       0.5008883
     13869.76       0.5006202
     13870.88       0.5003521
       13872.       0.5000874
     13873.12       0.4998189
     13874.25       0.4995102
     13875.38       0.4991426
      13876.5       0.4987747
     13877.63       0.4984065
     13878.76       0.4980385
     13879.89       0.4976699
       13881.       0.4973063
     13882.13       0.4969372
     13883.26       0.4965679
     13884.38       0.4961703
     13885.51       0.4957469
     13886.64       0.4953234
     13887.77       0.4948996
      13888.9       0.4944752
     13890.03       0.4940508
     13891.15       0.4936264
     13892.27       0.4932072
      13893.4        0.492782
     13894.53       0.4923649
     13895.65        0.491952
     13896.78        0.491539
      13897.9       0.4911311
     13899.03       0.4907175
     13900.16       0.4903037
     13901.29       0.4898898
     13902.42       0.4894751
     13903.54       0.4890603
     13904.67       0.4886682
      13905.8       0.4882822
     13906.93       0.4878956
     13908.06        0.487509
     13909.19       0.4871219
     13910.31       0.4867404
     13911.44       0.4863527
     13912.57       0.4859653
      13913.7       0.4855771
     13914.83       0.4852913
     13915.96        0.485015
     13917.09       0.4847386
     13918.21        0.484466
     13919.34       0.4841892
     13920.47       0.4839123
      13921.6       0.4836352
     13922.73        0.483358
     13923.86       0.4830858
     13924.99        0.482911
     13926.12       0.4827361
     13927.26       0.4825611
     13928.39       0.4823861
     13929.52       0.4822108
     13930.64       0.4820375
     13931.77        0.481862
      13932.9       0.4816864
     13934.03       0.4815075
     13935.17       0.4813159
     13936.28       0.4811265
     13937.41       0.4809347
     13938.56       0.4807402
     13939.68       0.4805506
     13940.81       0.4803582
     13941.94       0.4801658
     13943.08       0.4799732
     13944.21       0.4797051
     13945.34       0.4792994
     13946.48       0.4788923
     13947.59       0.4784914
     13948.73       0.4780844
     13949.86       0.4776773
     13950.99       0.4772696
     13952.13       0.4768619
     13953.26       0.4764539
      13954.4       0.4757851
     13955.53       0.4748679
     13956.65       0.4739632
     13957.78       0.4730449
     13958.92       0.4721259
     13960.05        0.471207
     13961.18       0.4702868
     13962.32       0.4693672
     13963.45       0.4684461
     13964.59       0.4668994
     13965.72       0.4650563
     13966.86       0.4632123
     13967.99       0.4613675
     13969.11       0.4595472
     13970.25       0.4577008
     13971.38       0.4558517
     13972.52       0.4540033
     13973.64       0.4521781
     13974.77       0.4492382
     13975.91       0.4460911
     13977.04       0.4429397
     13978.18       0.4397871
     13979.31       0.4366328
     13980.45       0.4334771
     13981.59         0.43032
     13982.72       0.4271589
     13983.86       0.4239554
       13985.       0.4194239
     13986.12       0.4149562
     13987.25       0.4104206
     13988.39       0.4058827
     13989.53       0.4013429
     13990.66       0.3968008
      13991.8       0.3922569
     13992.94       0.3877108
     13994.07       0.3829069
     13995.19       0.3772528
     13996.33       0.3715225
     13997.47       0.3657845
     13998.61       0.3600489
     13999.74        0.354306
     14000.88       0.3485302
     14002.02       0.3427442
     14003.16       0.3369569
     14004.29       0.3308177
     14005.43       0.3241733
     14006.55        0.317613
     14007.69       0.3109655
     14008.83       0.3043166
     14009.97       0.2976604
     14011.11       0.2910027
     14012.23       0.2844349
     14013.37       0.2777742
     14014.52       0.2709931
     14015.65        0.264361
     14016.79        0.257641
     14017.92       0.2509196
     14019.06       0.2441965
      14020.2       0.2374662
     14021.34       0.2307401
     14022.48       0.2240067
     14023.62       0.2172776
     14024.74       0.2110207
     14025.88       0.2047677
     14027.04       0.1984274
     14028.16       0.1922573
      14029.3       0.1859946
     14030.44       0.1797358
     14031.58       0.1734757
     14032.71       0.1672946
     14033.85       0.1610417
     14034.99       0.1558494
     14036.13        0.150656
     14037.27       0.1454614
     14038.41       0.1402655
     14039.55       0.1350685
     14040.69       0.1298703
     14041.83       0.1246709
     14042.97       0.1194704
     14044.11        0.114546
     14045.24       0.1105653
     14046.38        0.106525
     14047.52       0.1024837
     14048.66      0.09844162
      14049.8      0.09440202
     14050.93      0.09040993
     14052.09      0.08631314
     14053.23      0.08226388
     14054.36       0.0787688
      14055.5      0.07582222
     14056.64      0.07287242
     14057.78      0.06992448
     14058.92      0.06697336
     14060.07      0.06402156
     14061.21       0.0610691
     14062.35      0.05811595
     14063.48      0.05520253
     14064.62       0.0527955
     14065.78      0.05061571
     14066.91      0.04849427
     14068.05      0.04634109
     14069.19      0.04418927
     14070.34      0.04203626
     14071.46      0.03991468
     14072.61      0.03776283
     14073.75      0.03561192
     14074.89      0.03413275
     14076.04      0.03271458
     14077.18       0.0312946
     14078.33      0.02987526
     14079.47      0.02845532
     14080.61      0.02703223
     14081.76      0.02560879
      14082.9      0.02418382
     14084.03      0.02286725
     14085.17      0.02200499
     14086.32      0.02114178
     14087.46      0.02027838
     14088.59      0.01942585
     14089.74      0.01856207
      14090.9      0.01768629
     14092.04       0.0168221
     14093.17      0.01596879
     14094.32      0.01522026
     14095.46      0.01464248
     14096.61      0.01406407
     14097.75      0.01348552
      14098.9      0.01290685
     14100.04      0.01232804
     14101.17      0.01175701
     14102.32      0.01117745
     14103.48      0.01059035
     14104.61      0.01014237
     14105.76     0.009749695
      14106.9     0.009356931
     14108.05     0.008964415
      14109.2     0.008571473
     14110.33     0.008183804
     14111.47     0.007790684
     14112.62     0.007397478
     14113.77     0.007004181
     14114.91     0.006769521
     14116.06     0.006548667
     14117.21     0.006327571
     14118.35     0.006106619
      14119.5     0.005885424
     14120.65     0.005664183
      14121.8     0.005442888
     14122.93     0.005224562
     14124.08     0.005015818
     14125.22     0.004861635
     14126.37     0.004707415
      14127.5     0.004555129
     14128.67     0.004398739
     14129.81     0.004244414
     14130.95     0.004092024
      14132.1     0.003937497
     14133.24     0.003782937
     14134.39     0.003655865
     14135.54     0.003560962
     14136.69     0.003466041
     14137.84     0.003371096
     14138.99     0.003276129
     14140.12     0.003182354
     14141.28     0.003086051
     14142.43      0.00299094
     14143.57     0.002897179
     14144.72     0.002795576
     14145.87     0.002691681
     14147.01     0.002587764
     14148.16     0.002483823
      14149.3     0.002381273
     14150.45     0.002277196
      14151.6     0.002173185
     14152.75      0.00206915
      14153.9     0.001965915
     14155.05     0.001897527
      14156.2     0.001829183
     14157.35     0.001760766
      14158.5     0.001692332
     14159.65     0.001623884
     14160.78     0.001556349
     14161.93     0.001487811
     14163.08     0.001419316
     14164.24     0.001357097
     14165.39     0.001308401
     14166.54     0.001259735
     14167.69     0.001211016
     14168.84     0.001162287
     14169.98     0.001114209
     14171.13     0.001065457
     14172.28     0.000
