#  Table F814W_filter.tab  Thu 14:45:22 08-May-2014
#     WAVELENGTH      THROUGHPUT
#         angstroms                
     6959.506    0.
     6960.694     0.001005265
     6961.887     0.001050975
     6963.075     0.001123882
     6964.264     0.001197573
     6965.461     0.001271714
      6966.65     0.001345366
     6967.844     0.001419226
     6969.034      0.00149284
     6970.227     0.001566601
     6971.421     0.001640248
     6972.611     0.001741098
     6973.806     0.001862383
     6974.997     0.001983142
     6976.191     0.002104264
     6977.387     0.002225355
     6978.582     0.002346314
     6979.773     0.002466895
     6980.965     0.002587564
     6982.161     0.002724568
     6983.357     0.002926453
     6984.553     0.003128242
     6985.746      0.00332928
     6986.942     0.003530966
     6988.135     0.003731898
     6989.333     0.003933478
      6990.53     0.004134964
     6991.723       0.0043357
     6992.921     0.004656238
     6994.115     0.005000041
     6995.317     0.005346072
     6996.511     0.005689695
     6997.706     0.006033302
     6998.904     0.006377728
       7000.1     0.006721022
     7001.299     0.007063735
     7002.498     0.007514941
     7003.697     0.008086842
     7004.894     0.008656808
     7006.089     0.009226005
     7007.293     0.009798609
      7008.49      0.01036697
      7009.69      0.01093688
     7010.887      0.01150529
     7012.092      0.01212823
     7013.286      0.01307781
     7014.487      0.01403252
     7015.688      0.01498692
     7016.886      0.01593752
     7018.092        0.016894
     7019.291      0.01784359
     7020.493      0.01879479
     7021.691      0.01974129
     7022.891      0.02118491
     7024.097      0.02276424
     7025.297      0.02433313
       7026.5      0.02590501
       7027.7      0.02747094
     7028.904      0.02904112
     7030.107      0.03060936
     7031.308      0.03217414
     7032.513      0.03416882
     7033.713      0.03662145
     7034.918      0.03908004
     7036.123      0.04153763
     7037.329      0.04399416
      7038.53      0.04643975
     7039.732      0.04888532
     7040.937      0.05133584
     7042.144       0.0539354
      7043.35      0.05727915
     7044.553      0.06060938
     7045.759      0.06394766
     7046.962      0.06727374
     7048.169      0.07060786
     7049.377       0.0739406
     7050.581       0.0772559
     7051.788       0.0805745
     7052.992      0.08462603
     7054.201      0.08879928
     7055.409      0.09296649
     7056.614      0.09711932
     7057.822       0.1012796
     7059.027       0.1054237
     7060.237        0.109581
     7061.446        0.113742
     7062.656       0.1180929
     7063.861       0.1225582
     7065.068       0.1270234
     7066.278       0.1314975
     7067.488       0.1359698
     7068.699       0.1404383
     7069.906       0.1448905
     7071.121       0.1493532
     7072.328       0.1535885
     7073.536        0.157394
     7074.748       0.1612093
     7075.956       0.1650083
     7077.167       0.1688156
     7078.376       0.1726083
     7079.592       0.1764213
     7080.801       0.1802201
      7082.01       0.1839676
     7083.227       0.1866531
     7084.437       0.1893201
      7085.65       0.1919945
      7086.86       0.1946571
     7088.074        0.197327
     7089.288       0.1999957
     7090.502       0.2026534
     7091.713       0.2052885
     7092.924       0.2071053
     7094.139       0.2087241
     7095.354       0.2103405
      7096.57       0.2119565
     7097.781       0.2135648
     7098.997       0.2151772
     7100.209       0.2167874
     7101.426       0.2184203
     7102.642       0.2196175
     7103.855       0.2204744
     7105.072        0.221333
     7106.285       0.2221883
     7107.502       0.2230459
      7108.72       0.2239031
     7109.934       0.2247567
     7111.151       0.2256123
     7112.365       0.2262992
     7113.584       0.2266574
     7114.802       0.2270148
     7116.021       0.2273722
     7117.236       0.2277282
     7118.451       0.2280838
     7119.675       0.2284414
      7120.89       0.2287786
      7122.11       0.2290789
     7123.326       0.2291511
     7124.546       0.2292234
     7125.763       0.2292953
     7126.983       0.2293673
     7128.204       0.2294392
     7129.421       0.2295107
     7130.646       0.2295955
      7131.86        0.229691
     7133.086       0.2296841
     7134.304       0.2296676
     7135.522        0.229651
     7136.748       0.2296344
     7137.967       0.2296178
     7139.189        0.229601
     7140.408       0.2295761
     7141.631       0.2295348
     7142.851       0.2294395
      7144.07       0.2293235
     7145.298       0.2292068
     7146.518       0.2290908
     7147.742       0.2289744
     7148.967       0.2288581
     7150.191       0.2287456
     7151.412       0.2286543
     7152.633       0.2285502
     7153.858       0.2284349
     7155.084       0.2283195
      7156.31       0.2282043
     7157.532       0.2280894
     7158.758       0.2279742
      7159.98       0.2278594
     7161.207       0.2277202
     7162.433        0.227568
     7163.656       0.2273947
     7164.883        0.227221
     7166.106       0.2270478
     7167.334       0.2268743
     7168.562       0.2267007
     7169.786       0.2265279
     7171.014       0.2263745
     7172.238       0.2262216
     7173.467       0.2260517
     7174.696        0.225882
     7175.925       0.2257122
      7177.15       0.2255431
     7178.375       0.2253741
     7179.605       0.2252046
     7180.835       0.2250351
     7182.065       0.2248635
     7183.292        0.224664
     7184.526       0.2244634
     7185.749       0.2242647
     7186.979       0.2240647
      7188.21       0.2238649
     7189.438       0.2236658
     7190.669       0.2234531
     7191.897       0.2232302
     7193.133        0.223001
     7194.361       0.2227731
      7195.59       0.2225452
     7196.826       0.2223161
     7198.051       0.2220891
     7199.288       0.2218602
     7200.518       0.2216429
     7201.751       0.2214391
     7202.984        0.221229
      7204.21       0.2210189
     7205.448       0.2208068
     7206.679       0.2205961
     7207.913        0.220385
     7209.144       0.2201745
     7210.383       0.2199554
     7211.614       0.2197215
     7212.845       0.2195005
     7214.081       0.2192844
     7215.316       0.2190684
     7216.552       0.2188526
     7217.785       0.2186375
     7219.021       0.2184217
     7220.254       0.2182117
     7221.486       0.2180206
     7222.728       0.2178271
     7223.961        0.217634
     7225.198       0.2174404
     7226.432       0.2172474
      7227.67       0.2170539
     7228.908       0.2168604
     7230.142       0.2166638
      7231.38       0.2164365
     7232.615       0.2162346
     7233.854       0.2160567
     7235.093       0.2158788
     7236.333        0.215701
     7237.568       0.2155238
     7238.804       0.2153467
     7240.044         0.21517
     7241.284       0.2150159
     7242.525       0.2148747
     7243.761       0.2147508
     7245.002       0.2146265
     7246.239       0.2145027
      7247.48       0.2143785
     7248.722       0.2142544
     7249.959       0.2141306
     7251.202        0.213984
     7252.439       0.2138565
     7253.686       0.2137634
     7254.924       0.2136708
     7256.163       0.2135782
     7257.406       0.2134854
     7258.646       0.2133928
     7259.893       0.2132997
     7261.132       0.2132284
     7262.376       0.2131612
      7263.62       0.2130992
     7264.856       0.2130376
     7266.105       0.2129754
     7267.346       0.2129136
      7268.59       0.2128516
     7269.832       0.2127897
     7271.081       0.2127275
     7272.322       0.2126813
     7273.568         0.21268
      7274.81       0.2126788
     7276.052       0.2126774
     7277.302        0.212676
     7278.545       0.2126744
     7279.792       0.2126729
     7281.035       0.2126519
     7282.282       0.2126287
     7283.529       0.2126121
     7284.773       0.2125955
     7286.021       0.2125788
     7287.265        0.212562
     7288.513       0.2125451
     7289.762       0.2125281
      7291.01         0.21253
     7292.255       0.2125445
       7293.5       0.2125926
      7294.75       0.2126406
        7296.       0.2126886
     7297.249       0.2127365
     7298.495       0.2127842
     7299.746       0.2128319
     7300.992       0.2128609
     7302.243       0.2128847
     7303.493       0.2129074
      7304.74         0.21293
     7305.992       0.2129525
     7307.239       0.2129748
     7308.495       0.2129971
     7309.743       0.2130192
     7310.991       0.2130599
     7312.243       0.2131095
     7313.492       0.2131767
     7314.749       0.2132442
     7315.998       0.2133112
      7317.25       0.2133782
       7318.5       0.2134449
      7319.75       0.2135115
     7321.003       0.2135594
     7322.258       0.2136026
     7323.512       0.2136461
     7324.762       0.2136893
     7326.021       0.2137326
     7327.272       0.2137756
     7328.523       0.2138184
     7329.778       0.2138612
     7331.034       0.2139234
      7332.29       0.2139866
     7333.542       0.2140381
     7334.798       0.2140896
      7336.05        0.214141
     7337.303       0.2141921
     7338.564       0.2142436
     7339.817       0.2142945
     7341.074       0.2143254
     7342.328       0.2143537
     7343.585       0.2143855
     7344.843       0.2144174
     7346.097       0.2144488
     7347.356       0.2144804
      7348.61       0.2145118
     7349.869       0.2145429
     7351.128       0.2145954
     7352.387       0.2146371
     7353.643       0.2146462
     7354.898       0.2146552
     7356.158       0.2146642
     7357.418       0.2146731
     7358.679       0.2146818
     7359.935       0.2146905
     7361.196       0.2146766
     7362.453       0.2146555
     7363.714       0.2146226
     7364.975       0.2145897
     7366.233       0.2145567
     7367.495       0.2145236
     7368.752       0.2144906
     7370.015       0.2144576
     7371.277       0.2144482
     7372.536       0.2144206
     7373.799       0.2143657
     7375.058       0.2143109
     7376.325       0.2142557
     7377.584       0.2142008
     7378.848       0.2141457
     7380.108       0.2140887
     7381.369       0.2140101
     7382.637       0.2139217
     7383.897       0.2138235
     7385.162        0.213725
     7386.423       0.2136267
     7387.692       0.2135281
     7388.954       0.2134297
     7390.216       0.2133357
     7391.481       0.2132612
     7392.744       0.2131795
     7394.014       0.2130916
     7395.276       0.2130042
     7396.543       0.2129165
     7397.806       0.2128291
     7399.069       0.2127418
     7400.341       0.2126475
     7401.604       0.2125365
     7402.873        0.212376
     7404.136       0.2121907
     7405.405       0.2120046
     7406.673       0.2118188
     7407.938       0.2116336
     7409.207        0.211448
     7410.472        0.211272
     7411.741       0.2111103
     7413.011       0.2109521
     7414.281       0.2107949
     7415.547       0.2106383
     7416.813       0.2104818
     7418.083       0.2103248
     7419.354        0.210168
     7420.625       0.2099996
     7421.892       0.2098199
     7423.164        0.209603
     7424.431        0.209382
     7425.703       0.2091603
     7426.975       0.2089389
     7428.243       0.2087183
     7429.515       0.2084971
     7430.784       0.2082997
     7432.061       0.2081155
      7433.33       0.2079316
     7434.599       0.2077478
     7435.873       0.2075633
     7437.142       0.2073797
     7438.416       0.2071956
      7439.69       0.2070114
     7440.964       0.2068099
     7442.235       0.2066021
     7443.506       0.2063879
     7444.785       0.2061725
     7446.056       0.2059585
     7447.332        0.205744
     7448.603       0.2055303
     7449.883       0.2053152
     7451.151       0.2051233
     7452.432       0.2049325
     7453.704       0.2047442
     7454.977       0.2045561
     7456.258       0.2043669
     7457.531       0.2041789
     7458.809       0.2039904
     7460.082       0.2038011
      7461.36       0.2035897
     7462.638       0.2033791
     7463.912       0.2031703
     7465.191        0.202961
     7466.465       0.2027525
     7467.745       0.2025433
     7469.023       0.2023343
     7470.303       0.2021308
     7471.579       0.2019455
     7472.854       0.2017555
     7474.134       0.2015623
     7475.415       0.2013691
     7476.695       0.2011759
     7477.972       0.2009835
     7479.253       0.2007906
      7480.53        0.200589
     7481.811       0.2003737
     7483.093       0.2002127
     7484.371       0.2000654
     7485.653       0.1999176
     7486.931       0.1997704
     7488.213       0.1996227
     7489.496       0.1994751
     7490.775        0.199342
     7492.058       0.1992177
     7493.337       0.1990845
     7494.621       0.1989509
     7495.904       0.1988173
     7497.188       0.1986838
     7498.469       0.1985507
     7499.749       0.1984176
     7501.034       0.1982593
     7502.318       0.1981058
     7503.604       0.1979966
     7504.885       0.1978879
      7506.17       0.1977787
     7507.452       0.1976699
     7508.738       0.1975608
     7510.024       0.1974522
     7511.307       0.1973664
     7512.598       0.1972778
      7513.88       0.1971868
     7515.167       0.1970955
     7516.451       0.1970045
     7517.734       0.1969135
     7519.021       0.1968221
     7520.306       0.1967259
     7521.598        0.196612
     7522.882        0.196523
     7524.171       0.1964478
     7525.459       0.1963726
     7526.745       0.1962975
     7528.034       0.1962223
     7529.319       0.1961472
     7530.609       0.1960825
     7531.899       0.1960298
     7533.189       0.1959919
     7534.476       0.1959565
     7535.762        0.195921
     7537.053       0.1958853
     7538.344       0.1958496
     7539.635       0.1958139
     7540.922       0.1957622
     7542.214       0.1957071
     7543.502       0.1956785
     7544.794       0.1956497
     7546.086       0.1956208
     7547.375       0.1955919
     7548.668       0.1955629
     7549.957        0.195534
      7551.25       0.1955267
     7552.543       0.1955291
     7553.833       0.1955476
     7555.127       0.1955661
     7556.417       0.1955845
     7557.711       0.1956028
     7559.006       0.1956211
     7560.301        0.195634
     7561.592       0.1956295
     7562.883       0.1956308
     7564.179       0.1956358
     7565.474       0.1956406
      7566.77       0.1956453
     7568.062       0.1956499
     7569.358       0.1956544
     7570.651       0.1956702
     7571.948       0.1956971
     7573.245       0.1957118
     7574.538       0.1957249
     7575.835        0.195738
     7577.129       0.1957509
     7578.431       0.1957639
     7579.725       0.1957766
      7581.02       0.1957716
     7582.322       0.1957677
     7583.617       0.1957911
     7584.916       0.1958145
     7586.211       0.1958378
      7587.51        0.195861
     7588.806       0.1958839
     7590.102       0.1959086
     7591.406       0.1959543
     7592.702       0.1959713
     7594.003       0.1959565
     7595.304       0.1959417
     7596.604       0.1959268
     7597.902        0.195912
     7599.199       0.1958971
     7600.501       0.1958733
     7601.803       0.1958355
     7603.105       0.1958293
     7604.403       0.1958322
     7605.706       0.1958349
     7607.004       0.1958376
     7608.308         0.19584
     7609.611       0.1958425
      7610.91       0.1958449
     7612.214       0.1958421
     7613.514       0.1957908
     7614.818       0.1957394
     7616.122       0.1956879
     7617.422       0.1956363
     7618.728       0.1955848
     7620.028       0.1955338
     7621.333       0.1955049
     7622.639       0.1954635
     7623.945       0.1954047
     7625.247        0.195346
     7626.548       0.1952873
     7627.855       0.1952284
     7629.162       0.1951696
     7630.468       0.1950922
     7631.771       0.1949825
     7633.079       0.1948599
     7634.382       0.1947336
     7635.689       0.1946069
     7636.998       0.1944802
     7638.301       0.1943539
      7639.61       0.1942273
     7640.915        0.194117
     7642.228       0.1940096
     7643.532       0.1938735
     7644.837       0.1937374
     7646.147       0.1936009
     7647.453       0.1934648
     7648.767        0.193328
     7650.073       0.1931908
     7651.383        0.193032
     7652.694       0.1928612
     7654.005        0.192676
     7655.312       0.1924916
     7656.619       0.1923071
      7657.93       0.1921222
     7659.238        0.191938
     7660.554       0.1917622
     7661.862       0.1916006
     7663.174       0.1914339
     7664.483       0.1912667
     7665.796        0.191099
     7667.109       0.1909313
     7668.418       0.1907644
     7669.731       0.1905969
     7671.041       0.1904124
     7672.355       0.1902158
     7673.669       0.1899893
      7674.98       0.1897636
     7676.294       0.1895375
     7677.605       0.1893121
      7678.92       0.1890862
     7680.236       0.1888645
     7681.551       0.1886611
     7682.863       0.1884538
     7684.175       0.1882429
     7685.491       0.1880315
     7686.808       0.1878202
     7688.124       0.1876091
     7689.437       0.1873987
     7690.754       0.1871753
     7692.067       0.1869431
     7693.385       0.1867172
     7694.703       0.1864917
     7696.017        0.186267
     7697.335       0.1860419
     7698.649       0.1858177
     7699.972       0.1855921
     7701.287        0.185368
     7702.602        0.185138
     7703.921       0.1848967
     7705.237       0.1846563
     7706.561       0.1844145
     7707.876       0.1841745
     7709.197       0.1839339
     7710.513       0.1837027
      7711.83       0.1834849
     7713.155       0.1832738
     7714.472       0.1830664
     7715.793       0.1828585
     7717.111       0.1826514
     7718.437        0.182443
     7719.755       0.1822362
     7721.073       0.1820119
     7722.396       0.1817842
     7723.714       0.1815623
     7725.042        0.181339
     7726.361       0.1811173
     7727.684       0.1808951
     7729.003       0.1806738
     7730.323       0.1804578
     7731.652       0.1802568
     7732.972       0.1800588
     7734.296       0.1798612
     7735.617       0.1796644
     7736.942        0.179467
     7738.268       0.1792697
     7739.589       0.1790732
     7740.915       0.1788615
     7742.236        0.178646
     7743.563       0.1784518
     7744.889       0.1782577
     7746.216       0.1780638
     7747.538       0.1778706
     7748.861       0.1776775
     7750.188       0.1774869
     7751.516       0.1773145
     7752.844        0.177154
     7754.167       0.1770041
     7755.496       0.1768537
      7756.82       0.1767038
     7758.149       0.1765536
     7759.478       0.1764034
     7760.803        0.176241
     7762.132       0.1760699
     7763.458       0.1759084
     7764.787       0.1757465
     7766.117       0.1755846
     7767.443       0.1754233
     7768.774       0.1752616
     7770.101       0.1751005
     7771.436       0.1749384
     7772.763       0.1747941
     7774.094       0.1746682
     7775.421       0.1745426
     7776.749       0.1744171
     7778.082       0.1742913
     7779.414       0.1741654
     7780.746       0.1740514
     7782.075       0.1739468
     7783.412       0.1738167
     7784.741       0.1736862
      7786.07       0.1735558
     7787.404        0.173425
     7788.734       0.1732946
     7790.072       0.1731623
     7791.402       0.1730114
     7792.737       0.1728844
     7794.067       0.1727883
     7795.398        0.172692
     7796.738       0.1725952
     7798.069        0.172499
     7799.405       0.1724025
     7800.737       0.1723177
     7802.073       0.1722419
     7803.409       0.1721491
     7804.742       0.1720555
     7806.079       0.1719618
     7807.412       0.1718683
     7808.749       0.1717745
     7810.086       0.1716793
     7811.424       0.1715648
     7812.758       0.1714773
     7814.092       0.1714214
     7815.431       0.1713654
      7816.77       0.1713092
     7818.108        0.171253
     7819.443       0.1711969
     7820.783       0.1711527
     7822.118       0.1711171
     7823.458       0.1710544
     7824.798        0.170991
     7826.134       0.1709279
     7827.475       0.1708644
     7828.812       0.1708011
     7830.152       0.1707377
     7831.494       0.1706753
     7832.835       0.1706114
     7834.173       0.1705464
      7835.51       0.1704814
     7836.853       0.1704162
     7838.195       0.1703509
     7839.538       0.1702856
     7840.876       0.1702205
     7842.224       0.1701553
     7843.562       0.1700993
     7844.902       0.1700434
     7846.246       0.1699871
     7847.585        0.169931
      7848.93       0.1698747
      7850.27       0.1698227
     7851.619       0.1697868
     7852.959       0.1697412
       7854.3       0.1696889
      7855.65       0.1696363
     7856.992       0.1695839
     7858.337       0.1695313
     7859.679       0.1694789
     7861.025       0.1694105
     7862.372       0.1693425
     7863.714       0.1693029
     7865.062       0.1692631
     7866.404       0.1692234
     7867.752       0.1691834
       7869.1       0.1691434
     7870.448       0.1691102
     7871.792       0.1690908
     7873.136       0.1690341
     7874.484       0.1689628
     7875.833       0.1688916
     7877.182       0.1688203
     7878.527       0.1687492
     7879.877       0.1686779
     7881.222       0.1685882
     7882.572        0.168504
     7883.922       0.1684382
     7885.269       0.1683725
     7886.619       0.1683065
     7887.966       0.1682408
     7889.317       0.1681747
     7890.668       0.1681087
     7892.016       0.1680429
     7893.368       0.1679467
     7894.715        0.167847
     7896.072       0.1677467
      7897.42        0.167647
     7898.773        0.167547
     7900.122       0.1674492
     7901.471       0.1673701
     7902.824       0.1672814
     7904.178        0.167183
     7905.532       0.1670846
     7906.882       0.1669864
     7908.241       0.1668876
     7909.586       0.1667899
     7910.941       0.1666773
     7912.296       0.1665611
     7913.647       0.1664717
     7915.007       0.1663816
     7916.354       0.1662924
     7917.715       0.1662023
     7919.067       0.1661128
     7920.419       0.1660297
     7921.776       0.1659603
     7923.128        0.165869
      7924.49       0.1657675
     7925.843       0.1656668
     7927.201       0.1655658
     7928.559       0.1654648
     7929.913        0.165364
     7931.271       0.1652441
     7932.625        0.165129
     7933.984       0.1650256
     7935.343       0.1649221
     7936.702       0.1648188
     7938.057       0.1647158
     7939.413       0.1646127
     7940.773       0.1645094
     7942.133       0.1644063
     7943.493       0.1642824
      7944.85       0.1641582
      7946.21       0.1640336
     7947.567       0.1639094
     7948.929       0.1637849
     7950.291       0.1636647
     7951.648        0.163561
      7953.01       0.1634661
     7954.368       0.1633776
      7955.73       0.1632888
     7957.093          0.1632
     7958.452       0.1631115
     7959.815       0.1630227
     7961.174       0.1629169
     7962.538       0.1628079
     7963.902        0.162699
     7965.266       0.1625901
     7966.626       0.1624815
     7967.986       0.1623731
     7969.352       0.1622643
     7970.716       0.1621557
     7972.082       0.1620471
     7973.443         0.16195
     7974.809       0.1618534
      7976.17       0.1617572
     7977.537       0.1616607
     7978.903       0.1615642
     7980.266       0.1614723
     7981.637       0.1613975
        7983.       0.1613138
     7984.368       0.1612235
     7985.731       0.1611335
     7987.094       0.1610434
     7988.462       0.1609531
     7989.827        0.160863
     7991.199       0.1607581
     7992.564       0.1606517
     7993.933       0.1605445
     7995.302       0.1604374
     7996.663        0.160331
     7998.037       0.1602236
     7999.403       0.1601169
     8000.773       0.1600097
     8002.144       0.1599027
     8003.515       0.1598207
     8004.881         0.15974
     8006.248       0.1596592
     8007.619       0.1595782
     8008.987       0.1594974
     8010.363       0.1594115
      8011.73       0.1593136
     8013.103       0.1592183
     8014.471        0.159125
     8015.844       0.1590314
     8017.217       0.1589377
     8018.586       0.1588443
     8019.959       0.1587505
     8021.329       0.1586585
     8022.703       0.1585615
     8024.077       0.1584561
     8025.447       0.1583509
     8026.822       0.1582455
     8028.193       0.1581405
     8029.568       0.1580351
     8030.943       0.1579453
     8032.319       0.1578651
      8033.69       0.1578125
     8035.062       0.1577599
     8036.438        0.157707
     8037.815       0.1576541
     8039.192       0.1576011
     8040.564       0.1575403
     8041.942       0.1574677
     8043.315       0.1573538
     8044.697        0.157229
     8046.071        0.157105
     8047.445       0.1569809
     8048.823       0.1568566
     8050.198       0.1567326
     8051.581        0.156608
     8052.956       0.1565138
     8054.335       0.1564447
     8055.715       0.1563756
      8057.09       0.1563066
     8058.471       0.1562374
     8059.847       0.1561683
     8061.227       0.1561165
     8062.604        0.156052
     8063.989        0.155949
     8065.366       0.1558467
     8066.743       0.1557444
     8068.125       0.1556417
     8069.507        0.155539
     8070.889       0.1554237
     8072.267       0.1553021
      8073.65       0.1551869
     8075.029       0.1550721
     8076.412        0.154957
     8077.795       0.1548418
     8079.174       0.1547271
     8080.559       0.1546119
     8081.938       0.1544973
     8083.323       0.1543741
     8084.707        0.154249
     8086.088       0.1541242
     8087.473       0.1539991
     8088.854       0.1538745
     8090.239       0.1537527
     8091.625       0.1536471
     8093.011       0.1535271
     8094.393       0.1533966
     8095.775       0.1532661
     8097.162       0.1531353
     8098.549       0.1530044
     8099.936       0.1528736
     8101.319       0.1527248
     8102.707       0.1525749
      8104.09       0.1524261
     8105.479       0.1522768
     8106.867       0.1521275
     8108.251       0.1519788
      8109.64       0.1518297
     8111.025       0.1516811
     8112.419       0.1515292
     8113.804       0.1513631
     8115.189       0.1511972
      8116.58       0.1510307
     8117.965       0.1508649
      8119.36       0.1506981
     8120.747       0.1505428
     8122.138       0.1503958
     8123.524       0.1502336
     8124.912       0.1500702
     8126.308       0.1499058
     8127.695       0.1497426
     8129.088       0.1495788
      8130.48       0.1494087
     8131.873        0.149226
     8133.261       0.1490256
      8134.65       0.1488187
     8136.043       0.1486112
     8137.433       0.1484046
     8138.831       0.1481967
     8140.221       0.1479904
     8141.615       0.1477834
     8143.005       0.1475822
       8144.4       0.1473845
     8145.795       0.1471869
     8147.186       0.1469901
     8148.582       0.1467927
     8149.973       0.1465962
     8151.369       0.1464176
     8152.766       0.1462432
     8154.158        0.146076
     8155.554       0.1459082
     8156.947       0.1457411
     8158.344       0.1455734
     8159.742       0.1454059
     8161.139       0.1452233
     8162.533       0.1450294
     8163.927       0.1448034
     8165.325       0.1445769
     8166.724       0.1443507
     8168.123       0.1441245
     8169.517       0.1438993
     8170.917       0.1436735
     8172.312       0.1434486
     8173.712        0.143225
     8175.112       0.1430015
     8176.508       0.1427789
     8177.908       0.1425558
     8179.305       0.1423335
      8180.71       0.1421193
     8182.107       0.1419157
     8183.504       0.1417289
     8184.906       0.1415434
     8186.304       0.1413588
      8187.71       0.1411729
     8189.108       0.1409885
     8190.511       0.1407968
      8191.91       0.1405944
     8193.309       0.1403868
     8194.717       0.1401761
     8196.115       0.1399672
      8197.52       0.1397576
     8198.919       0.1395488
     8200.328       0.1393395
     8201.729       0.1391337
     8203.129       0.1389385
     8204.534        0.138749
     8205.935       0.1385604
     8207.345       0.1383705
     8208.746        0.138182
     8210.152       0.1379951
     8211.555       0.1378246
     8212.956       0.1376534
     8214.368       0.1374799
     8215.771       0.1373078
     8217.178       0.1371351
     8218.581        0.136963
     8219.988       0.1367906
     8221.396       0.1366006
     8222.801         0.13642
     8224.209       0.1362533
     8225.613       0.1360872
     8227.022       0.1359206
     8228.432       0.1357542
     8229.841       0.1355879
     8231.246        0.135432
     8232.651       0.1352807
     8234.062       0.1351374
     8235.473        0.134994
     8236.883       0.1348508
     8238.289       0.1347081
     8239.701       0.1345649
     8241.107       0.1344361
      8242.52        0.134317
     8243.932       0.1342272
     8245.339       0.1341377
     8246.751       0.1340479
     8248.159       0.1339584
     8249.572       0.1338685
     8250.985       0.1337665
     8252.398       0.1336591
     8253.808       0.1335507
     8255.217       0.1334423
     8256.636       0.1333332
     8258.046       0.1332249
      8259.46       0.1331162
      8260.87       0.1330078
      8262.29       0.1328989
     8263.696       0.1328021
     8265.111       0.1327047
     8266.527       0.1326072
     8267.938       0.1325101
     8269.359       0.1324122
     8270.771       0.1323246
     8272.188       0.1322445
     8273.601       0.1321944
     8275.014       0.1321461
     8276.436       0.1320976
     8277.849       0.1320493
     8279.267       0.1320007
     8280.681       0.1319439
     8282.099        0.131878
     8283.518       0.1318125
     8284.932       0.1317473
     8286.352       0.1316819
     8287.766       0.1316166
     8289.186        0.131551
     8290.605       0.1314854
     8292.025       0.1314197
     8293.441       0.1313906
     8294.857       0.1313693
     8296.278       0.1313477
     8297.699        0.131326
     8299.121       0.1313043
     8300.538       0.1312825
      8301.96       0.1312606
     8303.377       0.1312159
       8304.8       0.1311644
     8306.223       0.1311128
     8307.641       0.1310613
     8309.063       0.1310096
     8310.482       0.1309638
     8311.906       0.1309292
      8313.33       0.1309191
     8314.749       0.1309177
     8316.174       0.1309162
     8317.594       0.1309146
     8319.019       0.1309129
     8320.443       0.1309056
     8321.868       0.1308863
     8323.289       0.1308741
     8324.711       0.1308648
     8326.137       0.1308554
     8327.563       0.1308458
     8328.989       0.1308361
     8330.411       0.1308263
     8331.843       0.1308163
     8333.266       0.1308138
     8334.688       0.1308146
     8336.116       0.1308152
      8337.54       0.1308157
     8338.968       0.1308162
     8340.392       0.1308211
     8341.825       0.1308386
     8343.249       0.1308482
     8344.674       0.1308542
     8346.107         0.13086
     8347.533       0.1308657
     8348.963       0.1308712
     8350.389       0.1308719
     8351.818       0.1308598
     8353.249       0.1308415
     8354.676       0.1308199
     8356.106       0.1307983
     8357.533       0.1307766
     8358.965       0.1307546
     8360.397       0.1307326
     8361.829       0.1307104
     8363.257       0.1306919
     8364.685       0.1306751
     8366.118       0.1306581
     8367.551        0.130641
     8368.984       0.1306237
     8370.413       0.1306064
     8371.847       0.1305888
     8373.276       0.1305726
     8374.711       0.1305569
     8376.146        0.130541
     8377.575       0.1305251
     8379.011       0.1305089
     8380.441       0.1304981
     8381.877       0.1304992
     8383.312       0.1304878
     8384.744        0.130471
     8386.181       0.1304542
     8387.612       0.1304372
     8389.049       0.1304201
     8390.486        0.130397
     8391.923       0.1303622
     8393.356       0.1303213
     8394.789       0.1302781
     8396.228       0.1302347
     8397.666       0.1301912
     8399.104       0.1301476
     8400.538       0.1301091
     8401.978       0.1300787
     8403.412       0.1300206
     8404.852       0.1299539
     8406.291       0.1298871
     8407.727       0.1298206
     8409.171       0.1297535
     8410.603       0.1296943
     8412.048       0.1296446
     8413.484       0.1296023
     8414.921       0.1295613
     8416.362       0.1295203
     8417.799       0.1294793
     8419.246       0.1294379
     8420.684       0.1293884
     8422.126       0.1293297
     8423.568       0.1292445
     8425.007       0.1291555
      8426.45       0.1290663
     8427.889       0.1289773
     8429.332       0.1288881
     8430.776        0.128808
     8432.221       0.1287358
      8433.66       0.1286511
       8435.1       0.1285653
     8436.545       0.1284793
      8437.99       0.1283932
     8439.436       0.1283071
     8440.877       0.1282213
     8442.322       0.1281351
     8443.764       0.1280212
      8445.21       0.1279069
     8446.657       0.1277926
       8448.1       0.1276787
     8449.546       0.1275645
     8450.989       0.1274624
     8452.437       0.1273668
     8453.885       0.1272866
     8455.333       0.1272064
     8456.776       0.1271265
     8458.221       0.1270465
     8459.669       0.1269661
     8461.118       0.1268725
     8462.567       0.1267745
     8464.013        0.126675
     8465.467       0.1265748
     8466.908       0.1264755
     8468.358       0.1263756
     8469.809       0.1262757
     8471.255       0.1261761
     8472.706       0.1260684
     8474.153       0.1259392
     8475.609       0.1258091
     8477.057         0.12568
     8478.504       0.1255508
     8479.956       0.1254213
     8481.404       0.1252923
     8482.861       0.1250893
      8484.31       0.1247606
     8485.764       0.1244309
     8487.217       0.1241017
     8488.661       0.1237748
      8490.12       0.1234463
     8491.569        0.123136
     8493.024       0.1229123
     8494.475       0.1227859
     8495.935       0.1226587
     8497.385       0.1225322
     8498.836       0.1224058
     8500.292       0.1222712
     8501.743       0.1221064
     8503.204       0.1219616
     8504.656       0.1218319
     8506.112       0.1217019
     8507.565       0.1215721
     8509.018       0.1214425
     8510.479       0.1213121
     8511.933       0.1211828
     8513.392       0.1210002
     8514.845       0.1207981
     8516.304       0.1205954
     8517.762        0.120393
     8519.217       0.1201911
     8520.676       0.1199888
     8522.131       0.1197873
     8523.591       0.1196573
     8525.051       0.1195394
     8526.511       0.1194215
     8527.967       0.1193039
     8529.423       0.1191863
     8530.884       0.1190783
     8532.346       0.1189766
     8533.807       0.1188426
     8535.264        0.118709
     8536.726        0.118575
     8538.184       0.1184413
     8539.646       0.1183072
     8541.109       0.1181607
     8542.567       0.1180117
      8544.03       0.1178668
     8545.489       0.1177223
     8546.958       0.1175769
     8548.417       0.1174325
     8549.877       0.1172881
     8551.342       0.1171432
     8552.802        0.117004
     8554.271       0.1168756
     8555.732       0.1167479
     8557.197       0.1166199
     8558.659       0.1164922
      8560.12       0.1163646
     8561.591       0.1162361
     8563.053       0.1161066
      8564.52       0.1159748
     8565.982       0.1158433
     8567.454       0.1157111
     8568.917       0.1155797
      8570.38       0.1154525
     8571.849       0.1153366
     8573.312       0.1152383
     8574.785       0.1151483
     8576.249       0.1150588
     8577.719        0.114969
     8579.183       0.1148794
     8580.647       0.1147827
     8582.122       0.1146764
     8583.588       0.1145501
     8585.058       0.1144197
     8586.524       0.1142894
     8587.995       0.1141589
     8589.466       0.1140283
     8590.933       0.1138981
     8592.404       0.1137693
     8593.871       0.1136984
     8595.344        0.113627
     8596.815       0.1135556
     8598.288       0.1134841
     8599.757       0.1134127
     8601.225       0.1133413
     8602.698       0.1132654
     8604.172       0.1131754
     8605.646       0.1130853
     8607.115       0.1129954
      8608.59       0.1129051
      8610.06       0.1128158
     8611.534       0.1127412
     8613.009       0.1126684
     8614.479       0.1125981
     8615.955       0.1125275
     8617.427       0.1124571
     8618.907       0.1123862
     8620.379       0.1123115
     8621.852       0.1122251
     8623.328       0.1121469
     8624.801       0.1120733
     8626.282       0.1119991
     8627.756       0.1119253
     8629.233       0.1118512
     8630.707       0.1117931
     8632.181       0.1117523
     8633.664       0.1117141
     8635.138       0.1116766
     8636.617       0.1116388
     8638.092       0.1116009
     8639.571       0.1115629
     8641.052       0.1115246
     8642.527       0.1114907
     8644.007       0.1114939
     8645.483       0.1114968
     8646.969       0.1114996
     8648.445       0.1115022
     8649.927       0.1115047
     8651.403       0.1115069
     8652.881       0.1114929
     8654.368       0.1114481
     8655.846       0.1114033
     8657.328       0.1113583
     8658.807       0.1113132
      8660.29        0.111271
     8661.773       0.1112413
     8663.257        0.111239
     8664.736       0.1112556
     8666.216       0.1112719
       8667.7       0.1112881
     8669.185       0.1113042
      8670.67       0.1113129
      8672.15       0.1113129
     8673.636        0.111298
     8675.117       0.1112803
     8676.603       0.1112624
     8678.089       0.1112444
     8679.571       0.1112262
     8681.058       0.1112078
      8682.54       0.1111891
     8684.032       0.1111688
     8685.515       0.1111484
     8686.998       0.1111279
     8688.486       0.1111071
      8689.97       0.1110862
     8691.463        0.111065
     8692.947       0.1110393
     8694.436       0.1110061
     8695.921       0.1109727
     8697.405       0.1109392
     8698.899       0.1109053
     8700.385       0.1108715
     8701.876       0.1108374
     8703.361       0.1107917
     8704.857       0.1107394
     8706.344       0.1106873
      8707.83        0.110635
     8709.321       0.1105825
     8710.809       0.1105385
     8712.306       0.1105014
     8713.793       0.1105089
     8715.286        0.110519
     8716.773       0.1105289
     8718.262       0.1105386
     8719.756       0.1105481
     8721.249       0.1105443
     8722.743       0.1105266
     8724.232       0.1104725
     8725.727       0.1104182
     8727.222       0.1103636
     8728.712       0.1103091
     8730.207       0.1102543
     8731.697       0.1101995
     8733.193       0.1101633
     8734.689       0.1101437
     8736.186       0.1101239
     8737.677       0.1101039
     8739.169       0.1100838
     8740.666       0.1100634
     8742.163       0.1100429
     8743.661       0.1100226
     8745.154       0.1100023
     8746.652       0.1099817
     8748.146        0.109961
     8749.644         0.10994
     8751.143       0.1099189
     8752.637       0.1098906
     8754.136       0.1098241
     8755.631       0.1097577
     8757.136       0.1096908
     8758.631       0.1096241
     8760.126       0.1095587
     8761.627       0.1095072
     8763.123       0.1094598
     8764.629       0.1094163
     8766.125       0.1093729
     8767.627       0.1093292
     8769.124       0.1092855
     8770.621       0.1092351
     8772.129        0.109175
     8773.626       0.1090956
     8775.129       0.1090111
     8776.628       0.1089268
     8778.131       0.1088421
     8779.635       0.1087574
     8781.134       0.1086727
     8782.638       0.1085931
     8784.138        0.108544
     8785.646       0.1084945
     8787.143       0.1084452
     8788.652       0.1083952
     8790.153       0.1083454
     8791.653       0.1082956
     8793.165       0.1082267
     8794.666       0.1081395
     8796.173       0.1080519
     8797.675       0.1079645
     8799.182       0.1078768
     8800.684       0.1077796
     8802.191       0.1076704
     8803.699       0.1075507
     8805.202       0.1074297
     8806.711       0.1073081
     8808.219       0.1071865
     8809.729       0.1070648
     8811.232       0.1069561
     8812.736        0.106855
     8814.246       0.1067715
     8815.751       0.1066882
     8817.267       0.1066041
     8818.771       0.1065206
     8820.282       0.1064337
     8821.788       0.1063345
       8823.3       0.1062172
     8824.811       0.1060872
     8826.317       0.1059576
      8827.83       0.1058274
     8829.337       0.1056977
      8830.85       0.1055821
     8832.362        0.105478
      8833.87       0.1054022
     8835.384       0.1053271
     8836.893       0.1052522
     8838.411       0.1051766
      8839.92       0.1051015
     8841.434       0.1050259
     8842.943        0.104937
     8844.454       0.1048222
     8845.969       0.1047071
     8847.484       0.1045918
     8848.999       0.1044765
     8850.511       0.1043613
     8852.026       0.1042458
     8853.543       0.1041472
     8855.055       0.1040549
     8856.571       0.1039622
     8858.084       0.1038696
     8859.601       0.1037767
     8861.118       0.1036836
     8862.637       0.1035908
     8864.149       0.1035008
     8865.663       0.1034106
     8867.187       0.1033198
     8868.696       0.1032296
      8870.22       0.1031408
     8871.734       0.1030652
     8873.254       0.1029767
      8874.77       0.1028778
     8876.289       0.1027784
      8877.81       0.1026789
     8879.326       0.1025795
     8880.847       0.1024715
     8882.363       0.1023569
      8883.89       0.1022641
     8885.406        0.102173
     8886.924       0.1020817
     8888.446         0.10199
     8889.969       0.1018982
     8891.491       0.1018063
      8893.01       0.1017109
     8894.533        0.101609
     8896.052       0.1015074
     8897.575       0.1014053
       8899.1       0.1013031
     8900.619       0.1012011
     8902.144       0.1010987
     8903.664       0.1009953
     8905.188       0.1008912
     8906.714       0.1007869
      8908.24       0.1006825
     8909.761       0.1005784
     8911.282       0.1004741
     8912.809       0.1003679
     8914.336       0.1002565
     8915.862        0.100145
     8917.385       0.1000338
     8918.912      0.09992214
      8920.44      0.09981025
     8921.963      0.09969883
     8923.491       0.0996033
     8925.016      0.09951552
     8926.544       0.0994274
     8928.068      0.09933937
     8929.603      0.09925069
     8931.127      0.09916245
     8932.652      0.09907266
     8934.183      0.09897383
     8935.713      0.09887484
     8937.243      0.09877573
      8938.77      0.09867684
     8940.301      0.09858035
     8941.827       0.0984958
     8943.358      0.09841102
     8944.891      0.09832614
     8946.418      0.09824143
      8947.95      0.09815629
     8949.483      0.09807103
     8951.017      0.09797586
     8952.545      0.09787627
     8954.073      0.09778038
     8955.607      0.09768399
     8957.137      0.09758783
     8958.676      0.09749089
     8960.205      0.09739451
      8961.74      0.09729763
     8963.271      0.09720214
     8964.806      0.09710722
     8966.341      0.09701228
     8967.872       0.0969174
     8969.408      0.09682209
     8970.939      0.09672699
     8972.477      0.09663171
     8974.014      0.09655367
     8975.546      0.09647576
     8977.083      0.09639739
     8978.616       0.0963191
     8980.154      0.09624038
     8981.692      0.09616171
      8983.23      0.09607642
     8984.765      0.09598476
     8986.299      0.09589298
     8987.838      0.09580071
     8989.378      0.09570832
     8990.918      0.09561585
     8992.453      0.09552352
     8993.993      0.09543556
     8995.529      0.09534775
     8997.069      0.09525956
     8998.611      0.09517113
     9000.147      0.09508109
     9001.689       0.0949734
     9003.226      0.09486776
     9004.773      0.09476302
     9006.311      0.09465896
     9007.849      0.09455471
     9009.392         0.09445
      9010.93      0.09435426
     9012.479      0.09426354
     9014.018      0.09417914
     9015.562      0.09409437
     9017.101       0.0940097
     9018.646      0.09392455
      9020.19      0.09383754
      9021.73      0.09373849
     9023.275      0.09363303
     9024.816      0.09352215
     9026.367      0.09341048
     9027.908      0.09329943
      9029.45      0.09318824
     9030.997      0.09308254
     9032.539       0.0929811
     9034.091      0.09289646
     9035.634      0.09281216
     9037.182      0.09272747
     9038.725      0.09264285
     9040.268      0.09255815
     9041.821      0.09247292
     9043.365      0.09238624
     9044.914      0.09229773
     9046.459      0.09220934
     9048.008      0.09212055
     9049.558      0.09203157
     9051.104      0.09194281
     9052.653      0.09185328
     9054.199      0.09176001
      9055.75      0.09166632
     9057.302      0.09157243
     9058.853      0.09147849
     9060.399      0.09138466
     9061.947      0.09129084
     9063.499      0.09120312
     9065.052      0.09111863
     9066.604      0.09103404
     9068.152      0.09094954
     9069.706      0.09086454
     9071.255       0.0907798
     9072.809      0.09069336
     9074.362      0.09060159
     9075.912      0.09050988
     9077.467      0.09041771
     9079.017      0.09032571
     9080.577      0.09023809
     9082.127      0.09015974
     9083.678      0.09008079
     9085.234      0.09000126
     9086.785      0.08992188
     9088.347      0.08984177
     9089.898      0.08976197
     9091.456      0.08966903
     9093.008      0.08958042
     9094.561      0.08950165
     9096.123      0.08942217
     9097.677      0.08934294
     9099.235      0.08926331
     9100.789      0.08918379
     9102.353      0.08910371
     9103.907      0.08900529
     9105.461      0.08890487
     9107.021      0.08880398
     9108.576      0.08870318
     9110.142      0.08860165
     9111.696      0.08850084
     9113.258      0.08840626
     9114.813      0.08831904
     9116.375      0.08823133
     9117.937      0.08814346
     9119.493      0.08805566
     9121.056      0.08796749
     9122.613      0.08787908
     9124.176      0.08778524
     9125.738      0.08769125
     9127.302      0.08759703
      9128.86      0.08750297
     9130.419      0.08740877
     9131.983      0.08731422
     9133.547      0.08722069
     9135.111      0.08712756
     9136.672      0.08703449
     9138.236      0.08694101
     9139.797      0.08684764
     9141.362      0.08675388
     9142.929      0.08665813
     9144.489      0.08655768
     9146.056      0.08645664
     9147.617      0.08635584
     9149.185      0.08625448
     9150.752      0.08615303
     9152.314      0.08605184
     9153.882      0.08594719
     9155.445      0.08584223
     9157.019      0.08573647
     9158.582      0.08563121
      9160.15      0.08552548
     9161.715      0.08542004
     9163.279       0.0853147
     9164.854      0.08520887
     9166.419      0.08510343
     9167.989       0.0849976
     9169.555       0.0848919
      9171.13      0.08478548
     9172.696       0.0846798
     9174.262      0.08457572
     9175.834      0.08447104
       9177.4      0.08436657
     9178.973      0.08426155
     9180.545      0.08416098
     9182.117      0.08406892
     9183.686      0.08396934
     9185.253      0.08386707
     9186.832      0.08376383
       9188.4      0.08366118
     9189.975      0.08355798
     9191.543      0.08344233
     9193.118      0.08332492
     9194.692      0.08320589
     9196.263      0.08308703
     9197.838      0.08296767
     9199.408      0.08284861
     9200.984      0.08272374
     9202.561      0.08259587
     9204.137      0.08247375
     9205.708      0.08235192
      9207.28      0.08222986
     9208.857      0.08210738
     9210.435      0.08198482
     9212.013      0.08186209
     9213.585      0.08172987
     9215.164      0.08159212
     9216.737      0.08145484
     9218.315      0.08131704
     9219.895      0.08117913
     9221.469      0.08104166
     9223.049      0.08090094
     9224.624      0.08075514
     9226.209      0.08060843
     9227.784      0.08046256
     9229.359      0.08031665
      9230.94      0.08017349
     9232.517      0.08003294
     9234.099       0.0798976
      9235.68      0.07976232
     9237.262      0.07962687
      9238.84      0.07949167
     9240.417      0.07935649
     9242.005      0.07922038
     9243.583      0.07908253
     9245.166       0.0789429
     9246.745       0.0788035
     9248.329      0.07866365
     9249.913       0.0785237
     9251.492      0.07838422
     9253.077      0.07824228
     9254.657       0.0780971
     9256.247      0.07795096
     9257.828      0.07780561
     9259.414      0.07765975
     9260.995       0.0775143
     9262.576       0.0773688
     9264.163      0.07721882
      9265.75      0.07706878
     9267.337      0.07691872
     9268.919      0.07676907
     9270.507      0.07661887
     9272.095      0.07646868
     9273.678      0.07632295
     9275.267      0.07617824
     9276.851      0.07603391
     9278.439      0.07588911
     9280.028      0.07574423
     9281.618      0.07559927
     9283.203      0.07545225
     9284.788      0.07530174
     9286.379      0.07515063
      9287.97      0.07499946
     9289.561       0.0748483
     9291.146       0.0746976
     9292.738      0.07454741
     9294.325       0.0744056
     9295.917      0.07426333
      9297.51      0.07412086
     9299.097      0.07397888
     9300.689      0.07384142
     9302.277      0.07371102
     9303.876       0.0735786
     9305.465      0.07344671
     9307.054      0.07331473
     9308.648      0.07318214
     9310.237      0.07304819
     9311.838      0.07290326
     9313.428      0.07275984
     9315.022      0.07261639
     9316.613      0.07247325
     9318.204      0.07233002
       9319.8      0.07218632
     9321.396      0.07204248
     9322.993      0.07190026
     9324.585      0.07176285
     9326.183      0.07162488
      9327.78      0.07148678
     9329.373      0.07134904
     9330.971      0.07121082
     9332.564      0.07107291
     9334.163      0.07094677
     9335.757      0.07082088
      9337.36      0.07069408
     9338.955      0.07056784
      9340.55      0.07044151
     9342.155      0.07031416
      9343.75      0.07018532
     9345.351      0.07005506
     9346.946      0.06992508
     9348.548      0.06979449
     9350.144      0.06966428
      9351.75      0.06953311
     9353.348      0.06940579
     9354.944      0.06928182
     9356.547      0.06915727
     9358.149      0.06903259
     9359.753      0.06890763
     9361.351      0.06878304
     9362.954      0.06865929
     9364.553      0.06854028
     9366.157      0.06842066
     9367.762      0.06830083
     9369.361      0.06818125
     9370.966      0.06806108
     9372.565      0.06794113
     9374.171       0.0678274
     9375.777       0.0677134
     9377.378      0.06759963
     9378.984      0.06748526
     9380.586      0.06737102
     9382.192      0.06725626
       9383.8      0.06714044
     9385.407      0.06702416
      9387.01      0.06690802
     9388.612      0.06679168
     9390.226      0.06667437
     9391.829      0.06655762
     9393.438      0.06644022
     9395.042      0.06632303
     9396.651      0.06620519
     9398.256      0.06608751
     9399.865       0.0659693
     9401.476      0.06584062
     9403.081      0.06571147
     9404.691      0.06558222
     9406.298      0.06545315
     9407.914      0.06532312
     9409.521      0.06519373
     9411.127      0.06506415
     9412.739      0.06493333
     9414.352      0.06479649
     9415.964      0.06465957
     9417.572      0.06452282
     9419.185      0.06438562
     9420.793      0.06424861
     9422.402       0.0641114
     9424.021       0.0639638
      9425.63       0.0638159
     9427.245       0.0636673
     9428.854      0.06351914
     9430.475      0.06337189
     9432.085      0.06323021
     9433.695      0.06307997
     9435.312      0.06292529
     9436.923      0.06277103
     9438.544      0.06261576
     9440.156       0.0624613
     9441.772      0.06230638
     9443.385      0.06214594
     9445.003      0.06197885
      9446.62      0.06181184
     9448.233      0.06164522
     9449.852      0.06147813
     9451.466      0.06131141
     9453.085      0.06114043
     9454.704      0.06096088
     9456.318       0.0607819
     9457.938      0.06060244
     9459.553       0.0604235
     9461.173      0.06024406
     9462.794      0.06006316
     9464.415      0.05987253
     9466.031      0.05968257
     9467.647      0.05949271
     9469.269      0.05930242
     9470.891      0.05911209
     9472.514      0.05892181
     9474.131      0.05871937
     9475.754      0.05851565
     9477.377      0.05831213
     9478.995      0.05810938
     9480.619      0.05790608
     9482.237      0.05770371
     9483.861      0.05749208
     9485.481      0.05727867
     9487.111      0.05706424
     9488.731      0.05685131
     9490.352      0.05663864
     9491.977      0.05642555
     9493.598       0.0562088
     9495.229      0.05598802
     9496.851        0.055769
     9498.478      0.05554948
     9500.099      0.05533443
     9501.727      0.05517139
     9503.354      0.05500452
     9504.977       0.0548334
     9506.604      0.05466197
     9508.228      0.05449126
     9509.862      0.05431952
     9511.485      0.05414917
     9513.109      0.05397517
     9514.739      0.05379242
     9516.364      0.05361047
     9517.999      0.05342763
     9519.624      0.05324616
     9521.255      0.05306425
     9522.881      0.05288164
     9524.507      0.05269178
     9526.144      0.05250094
     9527.771      0.05231154
     9529.402      0.05212179
     9531.029      0.05193292
     9532.662      0.05174237
     9534.295      0.05151209
     9535.923      0.05128291
     9537.557      0.05105331
     9539.185      0.05082496
     9540.818      0.05059619
     9542.453      0.05036768
     9544.088      0.05008373
     9545.718      0.04979503
     9547.348      0.04950698
     9548.982      0.04921869
     9550.618      0.04893085
     9552.254      0.04864364
     9553.886      0.04829682
     9555.521      0.04793245
     9557.153      0.04756984
     9558.791      0.04720685
     9560.428      0.04684499
     9562.061      0.04648488
     9563.698       0.0460266
     9565.331      0.04552004
     9566.975      0.04501159
     9568.608      0.04450762
     9570.242      0.04400511
     9571.882       0.0435022
     9573.516      0.04289629
     9575.161      0.04219872
     9576.796       0.0415079
     9578.437      0.04081675
     9580.072      0.04012984
     9581.708      0.03944508
     9583.354       0.0387076
     9584.991      0.03791355
     9586.633      0.03711972
      9588.27      0.03633085
     9589.917      0.03553946
     9591.555      0.03475531
     9593.197      0.03392369
     9594.836      0.03300647
     9596.474      0.03209294
     9598.123      0.03117603
     9599.762      0.03026826
     9601.406      0.02936313
     9603.046      0.02844257
      9604.69      0.02745822
     9606.336      0.02647656
     9607.977      0.02550112
     9609.622      0.02452608
     9611.263      0.02355105
     9612.909      0.02259169
     9614.556      0.02172191
     9616.203      0.02085515
     9617.845      0.01999502
     9619.487       0.0191379
     9621.135      0.01828391
     9622.783      0.01744259
     9624.432      0.01669691
     9626.074      0.01595673
     9627.724      0.01521632
     9629.367      0.01448141
     9631.017      0.01374669
     9632.667      0.01301607
     9634.312      0.01239748
     9635.962      0.01177913
     9637.607      0.01116505
     9639.263      0.01054977
     9640.909       0.0099402
     9642.556     0.009333064
     9644.207     0.008884655
     9645.854     0.008448203
     9647.511     0.008010671
     9649.158     0.007577473
     9650.812     0.007144496
     9652.459     0.006714808
     9654.107     0.006383813
     9655.767     0.006064549
     9657.415     0.005748647
     9659.069     0.005432927
     9660.719     0.005119434
     9662.379     0.004805204
     9664.028     0.004554197
     9665.679     0.004315814
     9667.334      0.00407772
     9668.985     0.003841183
     9670.646      0.00360425
     9672.298     0.003369706
     9673.955     0.003193731
     9675.606     0.003034919
     9677.259     0.002876686
     9678.922     0.002718101
     9680.574     0.002561214
     9682.232     0.002404444
     9683.886     0.002283201
     9685.545     0.002173885
     9687.198     0.002065423
     9688.857     0.001957046
     9690.518     0.001849076
     9692.172     0.001741955
     9693.832     0.001653166
     9695.492     0.001572284
     9697.153     0.001491709
      9698.81     0.001411725
     9700.465      0.00133214
     9702.127     0.001252581
     9703.789     0.001188005
     9705.451      0.00113061
     9707.108     0.001073639
     9708.771     0.001016722
