# Average Spectral response curve for IRAC 3.6 micron array
# Wave     Spectral Response 
# Angstroms  electrons / photon 
30810.600000    0.000490
30828.900000    0.000586
30847.300000    0.000453
30865.600000    0.000458
30884.000000    0.000439
30902.400000    0.000531
30920.800000    0.000641
30939.300000    0.000442
30957.800000    0.000535
30976.200000    0.000655
30994.800000    0.000525
31013.300000    0.000631
31031.900000    0.000618
31050.400000    0.000496
31069.000000    0.000700
31087.700000    0.000895
31106.300000    0.000873
31125.000000    0.001045
31143.700000    0.001294
31162.400000    0.001390
31181.100000    0.001683
31199.900000    0.002132
31218.700000    0.002413
31237.500000    0.002782
31256.300000    0.003343
31275.200000    0.003846
31294.000000    0.004596
31312.900000    0.005760
31331.900000    0.006889
31350.800000    0.008313
31369.800000    0.010170
31388.800000    0.012180
31407.800000    0.014820
31426.800000    0.018160
31445.900000    0.021810
31464.900000    0.026460
31484.100000    0.031970
31503.200000    0.038570
31522.300000    0.046500
31541.500000    0.055220
31560.700000    0.065330
31579.900000    0.077400
31599.200000    0.091470
31618.400000    0.106100
31637.700000    0.122000
31657.000000    0.140600
31676.400000    0.158900
31695.700000    0.178800
31715.100000    0.200200
31734.500000    0.220500
31754.000000    0.241200
31773.400000    0.261800
31792.900000    0.282200
31812.400000    0.298600
31831.900000    0.314000
31851.500000    0.330400
31871.100000    0.343100
31890.700000    0.352900
31910.300000    0.360600
31929.900000    0.368500
31949.600000    0.372300
31969.300000    0.373700
31989.000000    0.375000
32008.800000    0.374400
32028.600000    0.371800
32048.400000    0.370300
32068.200000    0.368600
32088.000000    0.365300
32107.900000    0.361900
32127.800000    0.358000
32147.700000    0.354100
32167.600000    0.351300
32187.600000    0.349500
32207.600000    0.348400
32227.600000    0.345200
32247.700000    0.343700
32267.700000    0.344600
32287.800000    0.343600
32307.900000    0.343600
32328.100000    0.344300
32348.200000    0.344800
32368.400000    0.347400
32388.700000    0.349600
32408.900000    0.351200
32429.200000    0.354100
32449.500000    0.357800
32469.800000    0.362300
32490.100000    0.366100
32510.500000    0.369800
32530.900000    0.374800
32551.300000    0.379500
32571.800000    0.384100
32592.200000    0.389500
32612.700000    0.393600
32633.200000    0.397400
32653.800000    0.400700
32674.400000    0.403400
32695.000000    0.406500
32715.600000    0.410400
32736.300000    0.412500
32756.900000    0.413700
32777.600000    0.415800
32798.400000    0.415800
32819.100000    0.416300
32839.900000    0.416500
32860.700000    0.415300
32881.600000    0.414500
32902.400000    0.414300
32923.300000    0.414500
32944.200000    0.413400
32965.200000    0.412500
32986.200000    0.411700
33007.100000    0.409100
33028.200000    0.408600
33049.200000    0.409100
33070.300000    0.406900
33091.400000    0.406000
33112.500000    0.405600
33133.700000    0.405000
33154.900000    0.405500
33176.100000    0.404400
33197.300000    0.402400
33218.600000    0.402700
33239.900000    0.403600
33261.200000    0.404200
33282.600000    0.404700
33303.900000    0.404300
33325.300000    0.404700
33346.800000    0.406600
33368.200000    0.406800
33389.700000    0.406600
33411.200000    0.407000
33432.800000    0.406700
33454.300000    0.406500
33475.900000    0.406700
33497.600000    0.407200
33519.200000    0.407000
33540.900000    0.406600
33562.600000    0.406300
33584.300000    0.405100
33606.100000    0.405100
33627.900000    0.404900
33649.700000    0.403900
33671.600000    0.404800
33693.500000    0.404100
33715.400000    0.401600
33737.300000    0.403300
33759.300000    0.405600
33781.300000    0.405600
33803.300000    0.406300
33825.300000    0.407100
33847.400000    0.408000
33869.500000    0.410900
33891.700000    0.413500
33913.800000    0.416000
33936.000000    0.418700
33958.200000    0.420800
33980.500000    0.424500
34002.800000    0.427300
34025.100000    0.429100
34047.400000    0.432100
34069.800000    0.433300
34092.200000    0.433500
34114.600000    0.435300
34137.100000    0.436700
34159.600000    0.435400
34182.100000    0.434400
34204.600000    0.435600
34227.200000    0.435100
34249.800000    0.434300
34272.500000    0.434000
34295.100000    0.430300
34317.800000    0.426500
34340.600000    0.425400
34363.300000    0.424300
34386.100000    0.422100
34408.900000    0.420200
34431.800000    0.417900
34454.600000    0.416300
34477.500000    0.415700
34500.500000    0.414300
34523.500000    0.413900
34546.500000    0.414000
34569.500000    0.413100
34592.600000    0.413400
34615.600000    0.414500
34638.800000    0.415800
34661.900000    0.417600
34685.100000    0.418600
34708.300000    0.419400
34731.600000    0.421800
34754.800000    0.424800
34778.200000    0.427100
34801.500000    0.430500
34824.900000    0.434300
34848.300000    0.436900
34871.700000    0.440200
34895.200000    0.443400
34918.700000    0.445100
34942.200000    0.447700
34965.800000    0.450600
34989.400000    0.452900
35013.000000    0.455700
35036.600000    0.457200
35060.300000    0.456400
35084.100000    0.456400
35107.800000    0.458300
35131.600000    0.459900
35155.400000    0.460500
35179.300000    0.461400
35203.100000    0.461500
35227.100000    0.461500
35251.000000    0.461600
35275.000000    0.461500
35299.000000    0.462100
35323.000000    0.462900
35347.100000    0.462000
35371.200000    0.459600
35395.400000    0.458000
35419.600000    0.458200
35443.800000    0.457100
35468.000000    0.455500
35492.300000    0.455500
35516.600000    0.454700
35540.900000    0.453700
35565.300000    0.452800
35589.700000    0.451800
35614.200000    0.452100
35638.600000    0.452600
35663.200000    0.452600
35687.700000    0.451500
35712.300000    0.450500
35736.900000    0.450300
35761.500000    0.450800
35786.200000    0.452200
35810.900000    0.452800
35835.700000    0.452800
35860.500000    0.454400
35885.300000    0.456200
35910.100000    0.457400
35935.000000    0.458600
35959.900000    0.459500
35984.900000    0.460200
36009.900000    0.460200
36034.900000    0.459600
36060.000000    0.459500
36085.100000    0.458800
36110.200000    0.459100
36135.400000    0.459700
36160.600000    0.458400
36185.800000    0.457600
36211.100000    0.456800
36236.400000    0.455800
36261.700000    0.455300
36287.100000    0.453600
36312.500000    0.450900
36337.900000    0.448700
36363.400000    0.446900
36388.900000    0.445600
36414.500000    0.444800
36440.100000    0.442500
36465.700000    0.440600
36491.400000    0.440100
36517.100000    0.438100
36542.800000    0.436900
36568.600000    0.437600
36594.400000    0.436400
36620.200000    0.435200
36646.100000    0.435500
36672.000000    0.435700
36698.000000    0.436700
36724.000000    0.438200
36750.000000    0.438900
36776.100000    0.439000
36802.200000    0.440500
36828.300000    0.444100
36854.500000    0.446000
36880.700000    0.446800
36906.900000    0.449500
36933.200000    0.452500
36959.500000    0.455100
36985.900000    0.457200
37012.300000    0.459000
37038.700000    0.460200
37065.200000    0.462300
37091.700000    0.465800
37118.300000    0.468800
37144.900000    0.470200
37171.500000    0.470500
37198.200000    0.470500
37224.900000    0.471000
37251.600000    0.472100
37278.400000    0.473200
37305.200000    0.473400
37332.100000    0.472700
37359.000000    0.473000
37385.900000    0.472800
37412.900000    0.472800
37439.900000    0.473200
37466.900000    0.472300
37494.000000    0.471000
37521.200000    0.469700
37548.300000    0.469400
37575.500000    0.469700
37602.800000    0.467500
37630.100000    0.464700
37657.400000    0.463700
37684.800000    0.463500
37712.200000    0.462200
37739.600000    0.460400
37767.100000    0.460100
37794.600000    0.459600
37822.200000    0.458400
37849.800000    0.456700
37877.500000    0.456800
37905.100000    0.457500
37932.900000    0.456800
37960.600000    0.457100
37988.400000    0.457100
38016.300000    0.455600
38044.200000    0.456400
38072.100000    0.456900
38100.100000    0.454100
38128.100000    0.453000
38156.200000    0.452900
38184.300000    0.451100
38212.400000    0.449500
38240.600000    0.447000
38268.800000    0.444300
38297.100000    0.443000
38325.400000    0.441300
38353.700000    0.438500
38382.100000    0.437400
38410.500000    0.435200
38439.000000    0.431700
38467.500000    0.430200
38496.100000    0.429400
38524.700000    0.428000
38553.300000    0.428000
38582.000000    0.428000
38610.700000    0.428200
38639.500000    0.430100
38668.300000    0.433000
38697.200000    0.436400
38726.100000    0.439600
38755.000000    0.442300
38784.000000    0.444500
38813.000000    0.446100
38842.100000    0.447100
38871.200000    0.448300
38900.400000    0.447300
38929.600000    0.443700
38958.900000    0.434700
38988.100000    0.421100
39017.500000    0.405000
39046.900000    0.383500
39076.300000    0.355900
39105.800000    0.328600
39135.300000    0.293700
39164.800000    0.256300
39194.400000    0.221500
39224.100000    0.186900
39253.800000    0.152200
39283.500000    0.123700
39313.300000    0.098900
39343.100000    0.077500
39373.000000    0.058690
39402.900000    0.044850
39432.900000    0.033730
39462.900000    0.025150
39492.900000    0.018770
39523.000000    0.013760
39553.200000    0.009610
39583.400000    0.006888
39613.600000    0.004779
39643.900000    0.002983
39674.200000    0.002031
39704.600000    0.001633
39735.000000    0.001354
39765.500000    0.001214
39796.000000    0.001186
39826.600000    0.001077
39857.200000    0.001128
39887.900000    0.001287
39918.600000    0.001269
39949.300000    0.001177
39980.100000    0.001125
40011.000000    0.001074
40041.900000    0.000936
40072.800000    0.000751
40103.800000    0.000590
